#Wavenumber (cm^-1); Spectrum (K*cm*km*mol^-1); Integral (K*km*mol^-1)
0.00; 49.126598; 50.008756690133
1.02; 51.786237; 102.72491162295
2.04; 59.629078; 163.42473955533
3.05; 72.249431; 236.97154282684
4.07; 88.986663; 327.55612533011
5.09; 108.9685; 438.48136099891
6.11; 131.19779; 572.03504633959
7.13; 154.68317; 729.49583991455
8.14; 178.5935; 911.2963117416
9.16; 202.39722; 1117.3279477755
10.18; 225.94307; 1347.3282428086
11.20; 249.45008; 1601.2576602576
12.22; 273.4024; 1879.5695062277
13.23; 298.37673; 2183.3041398963
14.25; 324.85521; 2513.9927238145
15.27; 353.08319; 2873.4161788164
16.29; 383.01558; 3263.3095106781
17.31; 414.36277; 3685.1129347203
18.32; 446.71035; 4139.8447940997
19.34; 479.65992; 4628.1178934501
20.36; 512.93387; 5150.2624440521
21.38; 546.40525; 5706.4794149404
22.40; 580.04853; 6296.9437861815
23.41; 613.84262; 6921.8090835225
24.43; 647.67868; 7581.1180326928
25.45; 681.32261; 8274.6750472612
26.47; 714.45684; 9001.9612767164
27.48; 746.78871; 9762.1599607485
28.50; 778.17985; 10554.313464434
29.52; 808.73745; 11377.573285957
30.54; 838.8211; 12231.456971528
31.56; 868.95238; 13116.012992885
32.57; 899.65572; 14031.82369521
33.59; 931.29027; 14979.837004492
34.61; 963.93922; 15961.085530873
35.63; 997.40337; 16976.399120638
36.65; 1031.3057; 18026.223817456
37.66; 1065.2701; 19110.622849336
38.68; 1099.1083; 20229.467649959
39.70; 1132.9432; 21382.754960762
40.72; 1167.2225; 22570.937063942
41.74; 1202.612; 23795.144177165
42.75; 1239.8059; 25057.213129548
43.77; 1279.3153; 26359.500863203
44.79; 1321.3041; 27704.531460824
45.81; 1365.5251; 29094.577138212
46.83; 1411.37; 30531.290886727
47.84; 1458.0157; 32015.487984586
48.86; 1504.6185; 33547.124735718
49.88; 1550.4961; 35125.462868151
50.90; 1595.2474; 36749.355925126
51.92; 1638.7811; 38417.564321657
52.93; 1681.251; 40129.005272217
53.95; 1722.927; 41882.870584172
54.97; 1764.0429; 43678.590113765
55.99; 1804.6714; 45515.667715901
57.01; 1844.6629; 47393.454942833
58.02; 1883.6638; 49310.943439089
59.04; 1921.202; 51266.644191802
60.06; 1956.8016; 53258.583825795
61.08; 1990.0784; 55284.397782461
62.10; 2020.7724; 57341.456921777
63.11; 2048.7024; 59426.947596422
64.13; 2073.6634; 61537.84749059
65.15; 2095.3248; 63670.797681083
66.17; 2113.2017; 65821.945837796
67.19; 2126.7591; 67986.894799796
68.20; 2135.6587; 70160.903196611
69.22; 2140.0997; 72339.432376527
70.24; 2141.1427; 74519.023207358
71.26; 2140.8834; 76698.350153549
72.27; 2142.3676; 78879.187946092
73.29; 2149.2052; 81066.986061334
74.31; 2164.9426; 83270.80423639
75.33; 2192.3377; 85502.509457418
76.35; 2232.7254; 87775.327573803
77.36; 2285.6468; 90102.017408339
78.38; 2348.8378; 92493.032905237
79.40; 2418.5658; 94955.028519766
80.42; 2490.2096; 97489.954410529
81.44; 2558.9224; 100094.82699591
82.45; 2620.2312; 102762.10926915
83.47; 2670.4827; 105480.54537752
84.49; 2707.1273; 108236.28419939
85.51; 2728.8901; 111014.17659616
86.53; 2735.8884; 113799.19292508
87.54; 2729.7211; 116577.93125693
88.56; 2713.4898; 119340.14677487
89.58; 2691.6621; 122080.14259954
90.60; 2669.6887; 124797.77052561
91.62; 2653.3423; 127498.75845249
92.63; 2647.848; 130194.15345209
93.65; 2656.9823; 132898.84682245
94.67; 2682.3689; 135629.38257464
95.69; 2723.1806; 138401.46290968
96.71; 2776.3542; 141227.67169619
97.72; 2837.2717; 144115.89184884
98.74; 2900.723; 147068.70265492
99.76; 2961.8825; 150083.77119148
100.78; 3017.044; 153154.99175867
101.80; 3063.956; 156273.96670625
102.81; 3101.7449; 159431.40914128
103.83; 3130.5495; 162618.17348054
104.85; 3151.0667; 165825.82342896
105.87; 3164.2016; 169046.84410274
106.89; 3170.9372; 172274.72139118
107.90; 3172.4234; 175504.1115169
108.92; 3170.1825; 178731.22046504
109.94; 3166.2821; 181954.35903977
110.96; 3163.3394; 185174.50203264
111.98; 3164.2911; 188395.61382811
112.99; 3171.9581; 191624.53026834
114.01; 3188.5083; 194870.29409959
115.03; 3214.9643; 198142.98898839
116.05; 3250.892; 201452.25672786
117.07; 3294.3613; 204805.77442123
118.08; 3342.2026; 208207.99249267
119.10; 3390.5142; 211659.38961776
120.12; 3435.3239; 215156.4011268
121.14; 3473.2749; 218692.04510889
122.15; 3502.1969; 222257.13043776
123.17; 3521.4448; 225841.80931944
124.19; 3531.9277; 229437.1592669
125.21; 3535.8158; 233036.46714964
126.23; 3535.9897; 236635.95212753
127.24; 3535.3618; 240234.79793096
128.26; 3536.2417; 243834.53938457
129.28; 3539.9116; 247438.01665821
130.30; 3546.5206; 251048.22162674
131.32; 3555.3112; 254667.37505186
132.33; 3565.0888; 258296.48163593
133.35; 3574.7663; 261935.43943055
134.37; 3583.7943; 265583.58736284
135.39; 3592.3324; 269240.42670114
136.41; 3601.11; 272906.20130053
137.42; 3611.0404; 276582.0846101
138.44; 3622.7363; 280269.87387139
139.46; 3636.1095; 283971.2764452
140.48; 3650.1998; 287687.0223602
141.50; 3663.2956; 291416.0992083
142.51; 3673.3029; 295155.36308239
143.53; 3678.2413; 298899.65396597
144.55; 3676.7095; 302642.38554612
145.57; 3668.1901; 306376.44479482
146.59; 3653.1249; 310095.16832306
147.60; 3632.773; 313793.17444549
148.62; 3608.9267; 317466.90606269
149.64; 3583.5878; 321114.8438114
150.66; 3558.6948; 324737.44151345
151.68; 3535.952; 328336.88809689
152.69; 3516.7648; 331916.80294343
153.71; 3502.2434; 335481.93560605
154.73; 3493.2258; 339037.88876996
155.75; 3490.2766; 342590.83972163
156.77; 3493.6431; 346147.21765119
157.78; 3503.183; 349713.30675689
158.80; 3518.2966; 353294.78088373
159.82; 3537.9078; 356896.21834315
160.84; 3560.5231; 360520.67719377
161.86; 3584.3758; 364169.41708841
162.87; 3607.6296; 367841.82831684
163.89; 3628.5916; 371535.57800563
164.91; 3645.8778; 375246.92429095
165.93; 3658.4849; 378971.10405002
166.94; 3665.759; 382702.68853125
167.96; 3667.2915; 386435.83297912
168.98; 3662.8077; 390164.41314835
170.00; 3652.1249; 393882.11866752
171.02; 3635.2307; 397582.62663206
172.03; 3612.4834; 401259.97888353
173.05; 3584.8699; 404909.22177485
174.07; 3554.209; 408527.2531762
175.09; 3523.1796; 412113.69799879
176.11; 3495.0928; 415671.55169973
177.12; 3473.4097; 419207.33293138
178.14; 3461.1019; 422730.58528969
179.16; 3460.0239; 426252.74027372
180.18; 3470.4848; 429785.54405446
181.20; 3491.1585; 433339.39278532
182.21; 3519.3728; 436921.96242048
183.23; 3551.7023; 440537.4420733
184.25; 3584.6982; 444186.51020451
185.27; 3615.5544; 447866.98856942
186.29; 3642.5409; 451574.93804197
187.30; 3665.1231; 455305.87520871
188.32; 3683.7822; 459055.80655244
189.34; 3699.6376; 462821.87793843
190.36; 3714.0054; 466602.57516523
191.38; 3728.0176; 470397.53618683
192.39; 3742.375; 474207.11239995
193.41; 3757.2553; 478031.83619451
194.43; 3772.3534; 481871.92918077
195.45; 3787.0133; 485726.9453078
196.47; 3800.4176; 489595.60643297
197.48; 3811.8075; 493475.86194507
198.50; 3820.7123; 497365.18215603
199.52; 3827.1595; 501261.06535516
200.54; 3831.8216; 505161.6944175
201.56; 3836.0496; 509066.62732846
202.57; 3841.7524; 512977.36547846
203.59; 3851.1166; 516897.63595244
204.61; 3866.2022; 520833.26297229
205.63; 3888.4983; 524791.58645766
206.65; 3918.5415; 528780.49261402
207.66; 3955.6983; 532807.22277394
208.68; 3998.1762; 536877.19363377
209.70; 4043.2782; 540993.07637808
210.72; 4087.8592; 545154.34064029
211.74; 4128.8988; 549357.38149684
212.75; 4164.076; 553596.23117151
213.77; 4192.2219; 557863.73219326
214.79; 4213.5426; 562152.93671489
215.81; 4229.5343; 566458.42013838
216.82; 4242.576; 570777.17940964
217.84; 4255.2563; 575108.84666447
218.86; 4269.5784; 579455.093235
219.88; 4286.2485; 583818.30924393
220.90; 4304.2725; 588199.8728818
221.91; 4321.0362; 592598.5012838
222.93; 4332.9228; 597009.22970774
223.95; 4336.3547; 601423.45165626
224.97; 4328.989; 605830.1756199
225.99; 4310.6996; 610218.28182814
227.00; 4284.0011; 614579.21008406
228.02; 4253.7106; 618909.30395686
229.04; 4225.8803; 623211.06779403
230.06; 4206.2766; 627492.87591322
231.08; 4198.8582; 631767.13233754
232.09; 4204.732; 636047.36805685
233.11; 4221.932; 640345.11261359
234.13; 4246.0997; 644667.4588334
235.15; 4271.8468; 649016.01455947
236.17; 4294.3455; 653387.47293823
237.18; 4310.6124; 657775.49039553
238.20; 4320.0639; 662173.12898486
239.22; 4324.174; 666574.95154409
240.24; 4325.3937; 670978.01572757
241.26; 4325.7493; 675381.44189112
242.27; 4325.6605; 679784.77764517
243.29; 4323.4396; 684185.85256091
244.31; 4315.6913; 688579.04004341
245.33; 4298.5087; 692954.73643075
246.35; 4269.0674; 697300.46286715
247.36; 4227.0636; 701603.43121128
248.38; 4175.4762; 705853.88575763
249.40; 4120.3474; 710048.22165737
250.42; 4069.5992; 714190.89807305
251.44; 4031.2206; 718294.50673347
252.45; 4011.3728; 722377.91111308
253.47; 4012.9809; 726462.95255028
254.49; 4035.2215; 730570.63387567
255.51; 4074.0135; 734717.80382181
256.53; 4123.3016; 738915.14687842
257.54; 4176.6715; 743166.81828133
258.56; 4228.7678; 747471.52140576
259.58; 4276.0906; 751824.39712736
260.60; 4317.0106; 756218.92765137
261.61; 4351.1372; 760648.19759273
262.63; 4378.4134; 765105.23345957
263.65; 4398.3859; 769582.60048274
264.67; 4409.9956; 774071.78565391
265.69; 4411.9836; 778562.99460496
266.70; 4403.7235; 783045.79512097
267.72; 4386.0733; 787510.62849547
268.74; 4361.7972; 791950.74979283
269.76; 4335.2469; 796363.8440911
270.78; 4311.2811; 800752.54217484
271.79; 4293.7167; 805123.36046203
272.81; 4283.8386; 809484.12327563
273.83; 4279.532; 813840.5021474
274.85; 4275.436; 818192.711504
275.87; 4264.1893; 822533.47217115
276.88; 4238.4671; 826848.04880779
277.90; 4193.228; 831116.57398043
278.92; 4127.4915; 835318.1822213
279.94; 4045.0989; 839435.91829904
280.96; 3954.2122; 843461.13565395
281.97; 3865.6861; 847396.2373064
282.99; 3790.7708; 851255.07844639
284.01; 3738.7749; 855060.98995663
285.03; 3715.2885; 858842.99335535
286.05; 3721.3659; 862631.183238
287.06; 3753.7677; 866452.35677308
288.08; 3806.0759; 870326.77777507
289.10; 3870.2946; 874266.57062915
290.12; 3938.4948; 878275.78841192
291.14; 4004.1353; 882351.8253454
292.15; 4062.8514; 886487.63273839
293.17; 4112.6843; 890674.16793004
294.19; 4153.8565; 894902.61464807
295.21; 4188.2621; 899166.08473351
296.23; 4218.8298; 903460.67146112
297.24; 4248.8623; 907785.82992705
298.26; 4281.3974; 912144.10774304
299.28; 4318.6138; 916540.27025763
300.30; 4361.3145; 920979.90017884
301.32; 4408.564; 925467.62812515
302.33; 4457.5893; 930005.26164511
303.35; 4504.0444; 934590.18444994
304.37; 4542.6788; 939214.43545064
305.39; 4568.3303; 943864.79860969
306.41; 4577.0392; 948524.02702079
307.42; 4566.9926; 953173.0283937
308.44; 4539.0072; 957793.54181137
309.46; 4496.3621; 962370.64439784
310.48; 4443.9831; 966894.42740347
311.49; 4387.1931; 971360.40069929
312.51; 4330.4091; 975768.57031712
313.53; 4276.2066; 980121.56408311
314.55; 4225.0713; 984422.5043027
315.57; 4175.9273; 988673.41812388
316.58; 4127.2557; 992874.78629585
317.60; 4078.3906; 997026.41193204
318.62; 4030.4971; 1001129.2840773
319.64; 3986.8238; 1005187.6987019
320.66; 3952.0729; 1009210.7383784
321.67; 3931.0438; 1013212.3712859
322.69; 3926.9774; 1017209.8648562
323.71; 3940.1551; 1021220.7726922
324.73; 3967.2386; 1025259.2504225
325.75; 4001.6084; 1029332.7150965
326.76; 4034.6326; 1033439.796948
327.78; 4057.5124; 1037570.1694734
328.80; 4063.18; 1041706.3113704
329.82; 4047.7333; 1045826.729244
330.84; 4011.0597; 1049909.8149443
331.85; 3956.5558; 1053937.4180309
332.87; 3890.1086; 1057897.3807119
333.89; 3818.675; 1061784.6270702
334.91; 3748.8517; 1065600.7962838
335.93; 3685.7619; 1069352.7428513
336.94; 3632.4502; 1073050.4204044
337.96; 3589.8186; 1076704.7008486
338.98; 3557.0121; 1080325.58568
340.00; 3532.083; 1083921.0937476
341.02; 3512.7411; 1087496.9126424
342.03; 3497.0118; 1091056.7197082
343.05; 3483.6642; 1094602.9395662
344.07; 3472.3336; 1098137.6253294
345.09; 3463.3275; 1101663.1432479
346.11; 3457.1882; 1105182.4116769
347.12; 3454.1495; 1108698.5868565
348.14; 3453.6663; 1112214.270078
349.16; 3454.1863; 1115730.48272
350.18; 3453.267; 1119245.7594703
351.20; 3448.0279; 1122755.703074
352.21; 3435.8203; 1126253.2199082
353.23; 3414.9122; 1129729.4532181
354.25; 3384.9853; 1133175.2221953
355.27; 3347.3081; 1136582.6374354
356.28; 3304.5681; 1139946.5451353
357.30; 3260.4578; 1143265.550431
358.32; 3219.1734; 1146542.5300372
359.34; 3184.9635; 1149784.6854635
360.36; 3161.7827; 1153003.2438509
361.37; 3153.0039; 1156212.8657686
362.39; 3161.0817; 1159430.7105702
363.41; 3187.0839; 1162675.0244683
364.43; 3230.111; 1165963.1380623
365.45; 3286.7669; 1169308.9249417
366.46; 3350.945; 1172720.0423339
367.48; 3414.1913; 1176195.5417554
368.50; 3466.7753; 1179724.5694201
369.52; 3499.3668; 1183286.77384
370.54; 3504.9753; 1186854.687431
371.55; 3480.649; 1190397.8378723
372.57; 3428.435; 1193887.8367505
373.59; 3355.2781; 1197303.3650242
374.61; 3271.8312; 1200633.9480447
375.63; 3190.4639; 1203881.7025741
376.64; 3122.9667; 1207060.7479034
377.66; 3078.5056; 1210194.5337662
378.68; 3062.2533; 1213311.775518
379.70; 3074.8985; 1216441.8895307
380.72; 3112.9848; 1219610.7737725
381.73; 3169.8597; 1222837.5541711
382.75; 3236.9547; 1226132.6343961
383.77; 3305.1628; 1229497.1474704
384.79; 3366.162; 1232923.7550948
385.81; 3413.5978; 1236398.6503632
386.82; 3444.0353; 1239904.5296368
387.84; 3457.544; 1243424.1602798
388.86; 3457.7382; 1246943.988515
389.88; 3451.1179; 1250457.0776231
390.90; 3445.6977; 1253964.649174
391.91; 3449.1211; 1257475.705644
392.93; 3466.6927; 1261004.6492573
393.95; 3499.8845; 1264567.3806018
394.97; 3545.8257; 1268176.8781224
395.99; 3598.0362; 1271839.523706
397.00; 3648.2785; 1275553.3137559
398.02; 3689.0186; 1279308.5754976
399.04; 3715.7424; 1283091.0409278
400.06; 3728.3777; 1286886.3685101
401.07; 3731.3426; 1290684.7142736
402.09; 3732.1893; 1294483.9219306
403.11; 3739.2815; 1298290.349118
404.13; 3759.2702; 1302117.1239856
405.15; 3795.1894; 1305980.4630233
406.16; 3845.7652; 1309895.2860323
407.18; 3906.105; 1313871.5323453
408.20; 3969.4572; 1317912.2684529
409.22; 4029.3852; 1322014.0086624
410.24; 4081.5951; 1326168.8963829
411.25; 4124.8251; 1330367.7903563
412.27; 4160.5693; 1334603.0703981
413.29; 4191.8382; 1338870.1807515
414.31; 4221.4834; 1343167.468653
415.33; 4250.7413; 1347494.5398609
416.34; 4278.5296; 1351849.8983381
417.36; 4301.7329; 1356228.8768168
418.38; 4316.3458; 1360622.7305522
419.40; 4319.0389; 1365019.3257842
420.42; 4308.5836; 1369405.2780142
421.43; 4286.6379; 1373768.89041
422.45; 4257.6343; 1378102.9783644
423.47; 4227.8203; 1382406.7170414
424.49; 4203.7728; 1386685.9763278
425.51; 4190.8526; 1390952.0834139
426.52; 4192.0518; 1395219.4112283
427.54; 4207.524; 1399502.4891144
428.56; 4234.8654; 1403813.399309
429.58; 4269.9995; 1408160.0745079
430.60; 4308.3919; 1412545.8315708
431.61; 4346.2953; 1416970.1726679
432.63; 4381.7882; 1421430.6439966
433.65; 4415.4649; 1425925.3966882
434.67; 4450.7064; 1430456.0237394
435.69; 4493.4908; 1435030.2035107
436.70; 4551.6946; 1439663.6322498
437.72; 4633.8486; 1444380.6901987
438.74; 4747.3855; 1449213.3237975
439.76; 4896.5741; 1454197.8249036
440.78; 5080.5396; 1459369.5949317
441.79; 5291.9353; 1464756.5566669
442.81; 5516.8484; 1470372.4703005
443.83; 5736.3221; 1476211.7986727
444.85; 5929.4583; 1482247.7313683
445.87; 6077.5421; 1488434.40699
446.88; 6168.1732; 1494713.3411079
447.90; 6198.2036; 1501022.8449316
448.92; 6174.4854; 1507308.2045868
449.94; 6112.0139; 1513529.9709577
450.95; 6029.86; 1519668.1082245
451.97; 5946.0332; 1525720.9134548
452.99; 5872.8393; 1531699.2103924
454.01; 5814.1969; 1537617.8119329
455.03; 5765.7629; 1543487.1097979
456.04; 5717.7742; 1549307.5571501
457.06; 5659.5803; 1555068.7656542
458.08; 5584.2551; 1560753.2963368
459.10; 5491.655; 1566343.5641342
460.12; 5388.8626; 1571829.1936795
461.13; 5287.8959; 1577212.0435588
462.15; 5201.5411; 1582506.9879576
463.17; 5138.8096; 1587738.0743709
464.19; 5101.6138; 1592931.2970707
465.21; 5083.7715; 1598106.3570922
466.22; 5072.5982; 1603270.0431767
467.24; 5052.4535; 1608413.2227747
468.26; 5009.0003; 1613512.168902
469.28; 4932.8131; 1618533.5598049
470.30; 4821.3318; 1623441.4674941
471.31; 4678.8224; 1628204.3067671
472.33; 4514.6972; 1632800.0737313
473.35; 4341.0019; 1637219.0262933
474.37; 4169.9688; 1641463.8745563
475.39; 4012.2862; 1645548.2087917
476.40; 3876.2946; 1649494.1093787
477.42; 3767.9126; 1653329.6818564
478.44; 3690.8764; 1657086.8348056
479.46; 3646.9003; 1660799.221946
480.48; 3635.5893; 1664500.0949616
481.49; 3654.2008; 1668219.9137053
482.51; 3697.5345; 1671983.8442882
483.53; 3758.2367; 1675809.5670829
484.55; 3827.6473; 1679705.9468435
485.57; 3897.0767; 1683673.0027896
486.58; 3959.1947; 1687703.2921612
487.60; 4009.1314; 1691784.4148952
488.62; 4044.9697; 1695902.0194779
489.64; 4067.5035; 1700042.5624783
490.66; 4079.3702; 1704195.1852873
491.67; 4083.8523; 1708352.3706828
492.69; 4083.718; 1712509.4193668
493.71; 4080.4294; 1716663.1204204
494.73; 4073.9117; 1720810.1867838
495.74; 4062.9022; 1724946.0458727
496.76; 4045.7322; 1729064.4267203
497.78; 4021.2814; 1733157.9176686
498.80; 3989.7919; 1737219.3536942
499.82; 3953.2674; 1741243.609296
500.83; 3915.2823; 1745229.1977135
501.85; 3880.1958; 1749179.0695946
502.87; 3851.9504; 1753100.1888695
503.89; 3832.7986; 1757001.8124535
504.91; 3822.3751; 1760892.8253378
505.92; 3817.4747; 1764778.8498793
506.94; 3812.7039; 1768660.017949
507.96; 3801.8879; 1772530.1757602
508.98; 3779.8384; 1776377.8881466
510.00; 3743.9205; 1780189.0377059
511.01; 3694.8854; 1783950.2716159
512.03; 3636.6676; 1787652.2423514
513.05; 3575.2084; 1791291.6502574
514.07; 3516.7211; 1794871.5205595
515.09; 3466.0235; 1798399.7828794
516.10; 3425.5287; 1801886.8232691
517.12; 3395.2181; 1805343.0087458
518.14; 3373.5245; 1808777.1111513
519.16; 3358.6933; 1812196.1160048
520.18; 3350.0107; 1815606.2823238
521.19; 3348.3762; 1819014.7847901
522.21; 3355.9958; 1822431.0436698
523.23; 3375.362; 1825867.0165757
524.25; 3407.9884; 1829336.2016989
525.27; 3453.4502; 1832851.6649978
526.28; 3509.126; 1836423.803818
527.30; 3570.707; 1840058.6294771
528.32; 3633.2106; 1843757.0811318
529.34; 3692.0402; 1847515.4187559
530.36; 3743.6698; 1851326.3131141
531.37; 3785.7624; 1855180.055843
532.39; 3816.8359; 1859065.4300936
533.41; 3835.8212; 1862970.1305469
534.43; 3841.8859; 1866881.0046481
535.45; 3834.7276; 1870784.5918637
536.46; 3815.2409; 1874668.342505
537.48; 3786.2029; 1878522.5336511
538.50; 3752.5233; 1882342.440451
539.52; 3720.7473; 1886130.0006353
540.54; 3697.8086; 1889894.2102728
541.55; 3689.3887; 1893649.848751
542.57; 3698.4605; 1897414.7219004
543.59; 3724.5867; 1901206.1904464
544.61; 3764.28; 1905038.0650595
545.62; 3812.3296; 1908918.8521094
546.64; 3863.6195; 1912851.8500007
547.66; 3914.7648; 1916836.9116698
548.68; 3964.9656; 1920873.0755447
549.70; 4015.7805; 1924960.966807
550.71; 4069.9472; 1929103.9974497
551.73; 4129.7374; 1933307.8919484
552.75; 4195.5086; 1937578.7386324
553.77; 4265.0346; 1941920.3598266
554.79; 4333.9093; 1946332.0924294
555.80; 4396.9297; 1950807.9771327
556.82; 4450.0269; 1955337.9124548
557.84; 4492.1182; 1959910.694971
558.86; 4526.2719; 1964518.2444881
559.88; 4559.7638; 1969159.8872495
560.89; 4602.9153; 1973845.4563572
561.91; 4666.9318; 1978596.19157
562.93; 4761.235; 1983442.9233545
563.95; 4890.9425; 1988421.6917752
564.97; 5055.1628; 1993567.6293216
565.98; 5246.6272; 1998908.4694133
567.00; 5452.901; 2004459.2873116
568.02; 5659.036; 2010219.9417295
569.04; 5851.1356; 2016176.145247
570.06; 6019.9877; 2022304.2329039
571.07; 6163.7929; 2028578.7080669
572.09; 6289.1412; 2034980.7824556
573.11; 6409.7784; 2041505.660224
574.13; 6543.2788; 2048166.4356494
575.15; 6706.3609; 2054993.2216737
576.16; 6910.0538; 2062027.3582853
577.18; 7156.099; 2069311.9583156
578.20; 7435.761; 2076881.2421438
579.22; 7731.6514; 2084751.7296595
580.24; 8022.3898; 2092918.1762722
581.25; 8289.1303; 2101356.1531845
582.27; 8522.4111; 2110031.5999196
583.29; 8727.5892; 2118915.9091347
584.31; 8927.3788; 2128003.5955543
585.33; 9160.6576; 2137328.7496925
586.34; 9477.5771; 2146976.5142336
587.36; 9931.8894; 2157086.7490429
588.38; 10572.052; 2167848.6416466
589.40; 11432.933; 2179486.874444
590.41; 12529.745; 2192241.6142698
591.43; 13855.233; 2206345.6431548
592.45; 15380.35; 2222002.1762194
593.47; 17057.849; 2239366.3307109
594.49; 18827.657; 2258532.0728879
595.50; 20622.791; 2279525.1842809
596.52; 22374.812; 2302301.7775098
597.54; 24018.366; 2326751.4372419
598.56; 25494.951; 2352704.1976756
599.58; 26756.4; 2379941.0587092
600.59; 27768.481; 2408208.1741678
601.61; 28514.594; 2437234.7999652
602.63; 28998.82; 2466754.3475986
603.65; 29247.033; 2496526.5652576
604.67; 29304.644; 2526357.4284092
605.68; 29230.122; 2556112.4316291
606.70; 29084.55; 2585719.2485157
607.72; 28918.91; 2615157.4507118
608.74; 28761.993; 2644435.9189536
609.76; 28612.285; 2673561.9904337
610.77; 28436.586; 2702509.2081506
611.79; 28176.582; 2731191.7523358
612.81; 27762.368; 2759452.6447054
613.83; 27129.892; 2787069.7036743
614.85; 26237.926; 2813778.7797354
615.86; 25080.144; 2839309.2842789
616.88; 23689.121; 2863423.7874601
617.90; 22131.28; 2885952.4759232
618.92; 20494.318; 2906814.8072222
619.94; 18870.604; 2926024.2675273
620.95; 17340.963; 2943676.6192597
621.97; 15962.812; 2959926.073536
622.99; 14765.098; 2974956.3064653
624.01; 13750.362; 2988953.5816227
625.03; 12902.296; 3002087.5621203
626.04; 12195.85; 3014502.4106992
627.06; 11606.685; 3026317.5154662
628.08; 11117.481; 3037634.6311136
629.10; 10719.909; 3048547.0358678
630.12; 10412.606; 3059146.6192802
631.13; 10196.588; 3069526.3063147
632.15; 10070.121; 3079777.2547687
633.17; 10024.867; 3089982.1366859
634.19; 10044.485; 3100206.988793
635.21; 10105.889; 3110494.347364
636.22; 10182.553; 3120859.7465428
637.24; 10248.699; 3131292.4799437
638.26; 10283.106; 3141760.2378989
639.28; 10271.554; 3152216.2366306
640.29; 10207.473; 3162607.0035417
641.31; 10090.923; 3172879.1282053
642.33; 9926.5211; 3182983.8983469
643.35; 9721.1002; 3192879.558904
644.37; 9481.8518; 3202531.6749191
645.38; 9215.3675; 3211912.5213756
646.40; 8927.6321; 3221000.465651
647.42; 8624.6585; 3229779.9957916
648.44; 8313.2651; 3238242.5408875
649.46; 8001.5169; 3246387.7398354
650.47; 7698.5441; 3254224.5255679
651.49; 7413.7427; 3261771.3957317
652.51; 7155.6237; 3269055.5118354
653.53; 6930.716; 3276110.6816675
654.55; 6742.9022; 3282974.6651583
655.56; 6593.3959; 3289686.4576409
656.58; 6481.3391; 3296284.1811161
657.60; 6404.7932; 3302803.9842429
658.62; 6361.7968; 3309280.0188955
659.64; 6351.1849; 3315745.25102
660.65; 6372.9812; 3322232.6708504
661.67; 6428.3207; 3328776.4239565
662.69; 6518.9764; 3335412.4605888
663.71; 6646.623; 3342178.4359678
664.73; 6811.9791; 3349112.7367772
665.74; 7013.9565; 3356252.6418371
666.76; 7248.9528; 3363631.7629928
667.78; 7510.4492; 3371277.0761887
668.80; 7789.0899; 3379206.033609
669.82; 8073.3827; 3387424.3887924
670.83; 8351.03; 3395925.3769664
671.85; 8610.695; 3404690.6928872
672.87; 8843.7862; 3413693.2855745
673.89; 9045.7157; 3422901.4337772
674.91; 9216.1349; 3432283.0613994
675.92; 9357.9147; 3441809.0147748
676.94; 9475.0536; 3451454.2104649
677.96; 9570.1265; 3461196.1862864
678.98; 9642.155; 3471011.4839792
680.00; 9685.7448; 3480871.1542756
681.01; 9691.9746; 3490737.1661818
682.03; 9650.9207; 3500561.3870378
683.05; 9555.0892; 3510288.0555538
684.07; 9402.6213; 3519859.5183244
685.08; 9199.1361; 3529223.8418724
686.10; 8957.4911; 3538342.1812781
687.12; 8695.4561; 3547193.7803754
688.14; 8432.0384; 3555777.2316003
689.16; 8183.694; 3564107.8789915
690.17; 7961.6993; 3572212.5453323
691.19; 7771.5164; 3580123.6136427
692.21; 7614.2247; 3587874.5658258
693.23; 7489.2948; 3595498.3447262
694.25; 7397.4635; 3603028.6433916
695.26; 7342.4403; 3610502.9307373
696.28; 7330.6438; 3617965.2098286
697.30; 7368.9724; 3625466.5057218
698.32; 7461.423; 3633061.9123175
699.34; 7605.8954; 3640804.3856608
700.35; 7792.525; 3648736.8398993
701.37; 8004.3821; 3656884.9554713
702.39; 8220.5392; 3665253.1096595
703.41; 8420.6476; 3673824.9655987
704.43; 8589.5992; 3682568.8069197
705.44; 8720.7843; 3691446.1890458
706.46; 8816.91; 3700421.4229912
707.48; 8888.1477; 3709469.1738426
708.50; 8948.2588; 3718578.115208
709.52; 9009.9937; 3727749.9000078
710.53; 9081.2691; 3736994.240085
711.55; 9163.3424; 3746322.1272499
712.57; 9251.5235; 3755739.7789715
713.59; 9338.1215; 3765245.583656
714.61; 9416.58; 3774831.2557449
715.62; 9485.3424; 3784486.9250005
716.64; 9550.0291; 3794208.4425422
717.66; 9623.0076; 3804004.2490393
718.68; 9720.2483; 3813899.04237
719.70; 9856.2639; 3823932.29367
720.71; 10038.652; 3834151.2083164
721.73; 10264.066; 3844599.5844634
722.75; 10517.178; 3855305.617552
723.77; 10773.41; 3866272.4838031
724.79; 11005.054; 3877475.1541258
725.80; 11189.25; 3888865.3274528
726.82; 11315.49; 3900384.0084938
727.84; 11390.246; 3911978.7877375
728.86; 11436.969; 3923621.1282439
729.88; 11491.113; 3935318.5856515
730.89; 11591.404; 3947118.1352144
731.91; 11769.872; 3959099.3570744
732.93; 12043.727; 3971359.3516254
733.95; 12411.662; 3983993.8882414
734.96; 12855.777; 3997080.5146713
735.98; 13348.499; 4010668.7102878
737.00; 13862.208; 4024779.8399073
738.02; 14378.409; 4039416.4394
739.04; 14893.463; 4054577.3419686
740.05; 15419.13; 4070273.3508482
741.07; 15977.875; 4086538.1384352
742.09; 16594.589; 4103430.7139571
743.11; 17287.341; 4121028.481204
744.13; 18059.863; 4139412.6422334
745.14; 18897.638; 4158649.6226842
746.16; 19768.239; 4178772.8372098
747.18; 20625.339; 4199768.5418273
748.20; 21415.115; 4221568.2048171
749.22; 22083.616; 4244048.3734552
750.23; 22583.954; 4267037.8641107
751.25; 22882.609; 4290331.37283
752.27; 22964.368; 4313708.1082927
753.29; 22835.346; 4336953.5046298
754.31; 22523.389; 4359881.343154
755.32; 22075.127; 4382352.8698584
756.34; 21549.352; 4404289.1804081
757.36; 21007.34; 4425673.7456989
758.38; 20501.81; 4446543.703975
759.40; 20067.159; 4466971.2054238
760.41; 19713.722; 4487038.923301
761.43; 19428.053; 4506815.8426393
762.45; 19179.496; 4526339.742242
763.47; 18931.377; 4545611.067341
764.49; 18653.527; 4564599.5531009
765.50; 18332.306; 4583261.0499941
766.52; 17975.019; 4601558.8435802
767.54; 17607.436; 4619482.4531318
768.56; 17265.403; 4637057.888214
769.58; 16983.414; 4654346.2711374
770.59; 16783.897; 4671431.5541455
771.61; 16670.556; 4688401.4610218
772.63; 16627.629; 4705327.6699905
773.65; 16624.929; 4722251.1303807
774.67; 16626.796; 4739176.4916601
775.68; 16602.095; 4756076.7079912
776.70; 16532.396; 4772905.9739184
777.72; 16416.342; 4789617.1015088
778.74; 16269.457; 4806178.7065195
779.75; 16119.927; 4822588.0968041
780.77; 16001.728; 4838877.1650164
781.79; 15946.841; 4855110.3611437
782.81; 15978.227; 4871375.5064886
783.83; 16104.829; 4887769.5274912
784.84; 16319.443; 4904382.0161962
785.86; 16599.74; 4921279.8352605
786.88; 16912.246; 4938495.7714824
787.90; 17218.54; 4956023.5023051
788.92; 17482.493; 4973819.9257459
789.93; 17677.032; 4991814.3815451
790.95; 17788.949; 5009922.7638919
791.97; 17820.616; 5028063.3822552
792.99; 17788.214; 5046171.0161219
794.01; 17716.944; 5064206.1009149
795.02; 17634.513; 5082157.2741173
796.04; 17564.562; 5100037.2407528
797.06; 17521.705; 5117873.5803367
798.08; 17509.249; 5135697.239946
799.10; 17519.918; 5153531.7604535
800.11; 17539.053; 5171385.7597539
801.13; 17549.202; 5189250.0896438
802.15; 17534.808; 5207099.7677134
803.17; 17485.872; 5224899.6304153
804.19; 17399.833; 5242611.9097679
805.20; 17281.468; 5260203.6980556
806.22; 17140.998; 5277652.4946427
807.24; 16991.015; 5294948.6147362
808.26; 16842.983; 5312094.0447129
809.28; 16704.209; 5329098.2082658
810.29; 16576.042; 5345971.903246
811.31; 16453.84; 5362721.2028508
812.33; 16328.8; 5379343.2165171
813.35; 16191.216; 5395825.1755127
814.37; 16034.288; 5412147.3886604
815.38; 15857.292; 5428289.4278605
816.40; 15667.058; 5444237.8170498
817.42; 15477.166; 5459992.9039153
818.44; 15305.017; 5475572.7509146
819.46; 15167.675; 5491012.7891251
820.47; 15077.8; 5506361.3391101
821.49; 15040.994; 5521672.4221265
822.51; 15055.295; 5536998.0625623
823.53; 15112.787; 5552382.2273006
824.55; 15202.497; 5567857.7127618
825.56; 15313.368; 5583446.0604843
826.58; 15436.262; 5599159.5093367
827.60; 15564.547; 5615003.546664
828.62; 15693.613; 5630978.9673374
829.63; 15820.213; 5647083.2618316
830.65; 15942.568; 5663312.1084914
831.67; 16061.642; 5679662.1667671
832.69; 16183.156; 5696135.9208973
833.71; 16319.144; 5712748.1048409
834.72; 16487.613; 5729531.7831706
835.74; 16709.398; 5746541.2295845
836.76; 17002.438; 5763848.9778938
837.78; 17375.036; 5781536.0152697
838.80; 17820.611; 5799676.6281264
839.81; 18316.431; 5818321.9648978
840.83; 18827.785; 5837487.8378909
841.85; 19317.11; 5857151.8226238
842.87; 19755.609; 5877262.1797832
843.89; 20133.492; 5897757.2054318
844.90; 20464.955; 5918589.6466165
845.92; 20785.44; 5939748.3275477
846.94; 21141.281; 5961269.2393954
847.96; 21574.638; 5983231.2897686
848.98; 22108.566; 6005736.8564263
849.99; 22737.429; 6028882.577663
851.01; 23426.272; 6052729.5119807
852.03; 24119.817; 6077282.4450216
853.05; 24758.273; 6102485.2990718
854.07; 25294.664; 6128234.1757176
855.08; 25707.622; 6154403.4251576
856.10; 26005.138; 6180875.5337727
857.12; 26217.993; 6207564.3192868
858.14; 26385.386; 6234423.5040697
859.16; 26538.283; 6261438.3305398
860.17; 26686.895; 6288604.4382193
861.19; 26817.264; 6315903.2562564
862.21; 26898.437; 6343284.7039293
863.23; 26897.648; 6370665.349223
864.25; 26797.708; 6397944.2595206
865.26; 26609.697; 6425031.7827863
866.28; 26375.68; 6451881.0866306
867.30; 26159.738; 6478510.5710595
868.32; 26030.008; 6505007.995984
869.34; 26037.827; 6531513.3804169
870.35; 26201.278; 6558185.1510646
871.37; 26498.899; 6585159.8871379
872.39; 26875.665; 6612518.154678
873.41; 27258.953; 6640266.5927645
874.42; 27578.726; 6668340.5458315
875.44; 27784.91; 6696624.3853015
876.46; 27856.316; 6724980.912638
877.48; 27798.866; 6753278.9586915
878.50; 27634.981; 6781410.1764357
879.51; 27389.142; 6809291.1414087
880.53; 27075.765; 6836853.1017231
881.55; 26694.151; 6864026.5954074
882.57; 26232.199; 6890729.8419505
883.59; 25676.876; 6916867.7936655
884.60; 25026.743; 6942343.9379091
885.62; 24301.041; 6967081.3486448
886.64; 23541.23; 6991045.3053723
887.66; 22803.828; 7014258.6182106
888.68; 22146.71; 7036803.0129723
889.69; 21613.522; 7058804.6456226
890.71; 21221.532; 7080407.249778
891.73; 20957.037; 7101740.6093188
892.75; 20779.819; 7122893.568787
893.77; 20635.131; 7143899.2419114
894.78; 20469.328; 7164736.1341025
895.80; 20244.341; 7185343.9998199
896.82; 19946.867; 7205649.0497394
897.84; 19590.043; 7225590.8679139
898.86; 19207.82; 7245143.5996404
899.87; 18844.311; 7264326.2953579
900.89; 18541.55; 7283200.7929255
901.91; 18329.084; 7301859.0095869
902.93; 18217.85; 7320403.9950547
903.95; 18199.236; 7338930.0316912
904.96; 18248.747; 7357506.4689456
905.98; 18332.636; 7376168.3013144
907.00; 18415.427; 7394914.4111787
908.02; 18466.524; 7413712.5359315
909.04; 18464.7; 7432508.8034951
910.05; 18400.036; 7451239.2464028
911.07; 18273.557; 7469840.9388778
912.09; 18095.178; 7488261.049355
913.11; 17880.756; 7506462.8874266
914.13; 17648.935; 7524428.7414187
915.14; 17418.324; 7542159.8438127
916.16; 17205.347; 7559674.1444102
917.18; 17022.914; 7577002.7365002
918.20; 16879.948; 7594185.7950946
919.22; 16781.624; 7611268.7637834
920.23; 16730.1; 7628299.2831715
921.25; 16725.408; 7645325.0270541
922.27; 16766.182; 7662392.2770707
923.29; 16849.974; 7679544.8234509
924.30; 16973.113; 7696822.7197784
925.32; 17130.254; 7714260.5787872
926.34; 17313.94; 7731885.4228441
927.36; 17514.537; 7749714.46552
928.38; 17720.762; 7767753.436557
929.39; 17920.813; 7785996.0505405
930.41; 18103.807; 7804424.9449141
931.43; 18261.13; 7823013.9868024
932.45; 18387.301; 7841731.4654538
933.47; 18480.223; 7860543.5352742
934.48; 18540.96; 7879417.4328168
935.50; 18573.421; 7898324.3743419
936.52; 18584.331; 7917242.4217337
937.54; 18583.595; 7936159.71925
938.56; 18584.75; 7955078.1927233
939.57; 18604.848; 7974017.1251899
940.59; 18663.018; 7993015.2724957
941.61; 18777.331; 8012129.7849293
942.63; 18960.269; 8031430.5206276
943.65; 19213.933; 8050989.4755832
944.66; 19526.631; 8070866.7435614
945.68; 19872.474; 8091096.0643576
946.70; 20214.856; 8111673.9152167
947.72; 20513.454; 8132555.7261772
948.74; 20733.049; 8153661.0750541
949.75; 20851.596; 8174887.0998342
950.77; 20864.959; 8196126.7278458
951.79; 20786.645; 8217286.6349726
952.81; 20642.494; 8238299.8031832
953.83; 20462.013; 8259129.249458
954.84; 20269.186; 8279762.4059995
955.86; 20075.818; 8300198.722147
956.88; 19879.53; 8320435.2260521
957.90; 19666.879; 8340455.2597513
958.92; 19420.263; 8360224.2490485
959.93; 19126.04; 8379693.7322636
960.95; 18780.969; 8398811.9477753
961.97; 18394.866; 8417537.1278996
962.99; 17988.83; 8435848.9803188
964.01; 17589.938; 8453754.778027
965.02; 17224.472; 8471288.5471078
966.04; 16911.961; 8488504.193734
967.06; 16661.803; 8505465.1900362
968.08; 16473.104; 8522234.0991895
969.09; 16337.238; 8538864.7028421
970.11; 16241.827; 8555398.1813957
971.13; 16174.677; 8571863.3044278
972.15; 16126.599; 8588279.4866241
973.17; 16092.704; 8604661.1645177
974.18; 16072.446; 8621022.220668
975.20; 16069.055; 8637379.8255287
976.22; 16088.955; 8653757.6870078
977.24; 16141.448; 8670188.9846217
978.26; 16238.538; 8686719.1158372
979.27; 16394.407; 8703407.9142907
980.29; 16624.046; 8720330.4759365
981.31; 16940.759; 8737575.4378712
982.33; 17352.661; 8755239.6982354
983.35; 17858.81; 8773419.196126
984.36; 18445.951; 8792196.3780391
985.38; 19087.001; 8811626.1212856
986.40; 19742.219; 8831722.8483918
987.42; 20363.512; 8852452.0248293
988.44; 20901.579; 8873728.9300311
989.45; 21314.75; 8895426.4260076
990.47; 21577.65; 8917391.5427595
991.49; 21687.456; 8939468.436772
992.51; 21665.766; 8961523.2520999
993.53; 21554.977; 8983465.2885481
994.54; 21409.447; 9005259.1814136
995.56; 21283.318; 9026924.6809946
996.58; 21218.053; 9048523.7435704
997.60; 21233.163; 9070138.1870609
998.62; 21322.959; 9091844.0390659
999.63; 21460.515; 9113689.9169679
1000.65; 21607.868; 9135685.7939419
1001.67; 21729.501; 9157805.4882117
1002.69; 21805; 9180002.0376402
1003.71; 21836.942; 9202231.1021533
1004.72; 21851.499; 9224474.9849389
1005.74; 21891.537; 9246759.6249087
1006.76; 22004.306; 9269159.0587439
1007.78; 22227.458; 9291785.6521342
1008.80; 22577.522; 9314768.5948782
1009.81; 23044.013; 9338226.4054153
1010.83; 23590.534; 9362240.5507907
1011.85; 24162.078; 9386836.5039315
1012.87; 24696.129; 9411976.0972829
1013.89; 25134.407; 9437561.8391976
1014.90; 25432.455; 9463450.9806561
1015.92; 25565.267; 9489475.3191968
1016.94; 25528.542; 9515462.2735685
1017.96; 25336.206; 9541253.4380385
1018.97; 25015.48; 9566718.1172739
1019.99; 24600.844; 9591760.7148404
1021.01; 24127.978; 9616321.9556322
1022.03; 23628.438; 9640374.6859792
1023.05; 23125.578; 9663915.5266719
1024.06; 22632.168; 9686954.0969343
1025.08; 22150.07; 9709501.9121929
1026.10; 21672.181; 9731563.2572632
1027.12; 21186.437; 9753130.1359098
1028.14; 20681.143; 9774182.6470463
1029.15; 20150.401; 9794694.8853735
1030.17; 19598.193; 9814644.9998918
1031.19; 19039.919; 9834026.8156446
1032.21; 18500.83; 9852859.8623554
1033.23; 18011.688; 9871194.9834032
1034.24; 17602.76; 9889113.8332903
1035.26; 17297.695; 9906722.140165
1036.28; 17108.747; 9924138.106163
1037.30; 17034.317; 9941478.3053367
1038.32; 17059.079; 9958843.7116868
1039.33; 17156.34; 9976308.1253068
1040.35; 17291.909; 9993910.5429093
1041.37; 17428.753; 10011652.261817
1042.39; 17531.841; 10029498.919094
1043.41; 17572.792; 10047387.262732
1044.42; 17533.974; 10065236.091205
1045.44; 17411.573; 10082960.320971
1046.46; 17217.024; 10100486.508714
1047.48; 16976.172; 10117767.518902
1048.50; 16725.825; 10134793.686753
1049.51; 16507.963; 10151598.080823
1050.53; 16362.539; 10168254.439786
1051.55; 16320.376; 10184867.878035
1052.57; 16397.762; 10201560.092083
1053.59; 16593.948; 10218452.015056
1054.60; 16891.904; 10235647.244619
1055.62; 17261.8; 10253219.012179
1056.64; 17666.007; 10271202.244775
1057.66; 18064.308; 10289590.930416
1058.68; 18418.412; 10308340.079414
1059.69; 18695.58; 10327371.373305
1060.71; 18871.751; 10346582.00102
1061.73; 18934.723; 10365856.732128
1062.75; 18887.487; 10385083.379049
1063.76; 18750.978; 10404171.065144
1064.78; 18564.785; 10423069.215646
1065.80; 18384.175; 10441783.51205
1066.82; 18272.472; 10460384.099788
1067.84; 18289.411; 10479001.930945
1068.85; 18477.828; 10497811.56299
1069.87; 18852.458; 10517002.552133
1070.89; 19394.766; 10536745.586995
1071.91; 20056.443; 10557162.180289
1072.93; 20771.631; 10578306.803867
1073.94; 21474.941; 10600167.367558
1074.96; 22120; 10622684.573294
1075.98; 22692.524; 10645784.583412
1077.00; 23213.317; 10669414.738895
1078.02; 23729.698; 10693570.547402
1079.03; 24297.746; 10718304.604135
1080.05; 24961.065; 10743713.891102
1081.07; 25733.176; 10769909.153847
1082.09; 26589.667; 10796976.287615
1083.11; 27473.034; 10824942.651089
1084.12; 28308.84; 10853759.828449
1085.14; 29027.899; 10883308.976868
1086.16; 29587.079; 10913427.346809
1087.18; 29981.73; 10943947.454669
1088.20; 30245.618; 10974736.188629
1089.21; 30438.517; 11005721.285041
1090.23; 30625.812; 11036897.039622
1091.25; 30857.109; 11068308.244605
1092.27; 31151.067; 11100018.686713
1093.29; 31491.418; 11132075.591282
1094.30; 31835.237; 11164482.488825
1095.32; 32130.389; 11197189.837856
1096.34; 32336.035; 11230106.526065
1097.36; 32439.21; 11263128.242528
1098.38; 32461.888; 11296173.043462
1099.39; 32456.174; 11329212.027763
1100.41; 32489.141; 11362284.571841
1101.43; 32622.078; 11395492.440016
1102.45; 32890.619; 11428973.671256
1103.47; 33291.897; 11462863.386085
1104.48; 33782.694; 11497252.711174
1105.50; 34289.335; 11532157.774765
1106.52; 34726.716; 11567508.073496
1107.54; 35021.34; 11603158.286827
1108.56; 35132.149; 11638921.298045
1109.57; 35063.527; 11674614.454986
1110.59; 34866.868; 11710107.422156
1111.61; 34629.962; 11745359.229512
1112.63; 34456.511; 11780434.470558
1113.64; 34440.56; 11815493.474163
1114.66; 34641.988; 11850757.522743
1115.68; 35069.093; 11886456.34651
1116.70; 35672.802; 11922769.719229
1117.72; 36354.339; 11959776.867442
1118.73; 36985.029; 11997426.030984
1119.75; 37433.86; 12035532.085061
1120.77; 37596.421; 12073803.619579
1121.79; 37418.274; 12111893.80778
1122.81; 36907; 12149463.541354
1123.82; 36129.875; 12186242.194967
1124.84; 35197.658; 12222071.892054
1125.86; 34238.523; 12256925.231065
1126.88; 33368.663; 12290893.090302
1127.90; 32666.944; 12324146.630142
1128.91; 32159.843; 12356883.962174
1129.93; 31820.108; 12389275.459402
1130.95; 31578.911; 12421421.427725
1131.97; 31347.653; 12453331.986114
1132.99; 31043.238; 12484932.662326
1134.00; 30609.905; 12516092.224266
1135.02; 30032.081; 12546663.586882
1136.04; 29335.414; 12576525.772642
1137.06; 28576.588; 12605615.505676
1138.08; 27825.545; 12633940.709891
1139.09; 27145.565; 12661573.723429
1140.11; 26576.79; 12688627.748408
1141.13; 26127.398; 12715224.312067
1142.15; 25774.117; 12741461.250706
1143.17; 25471.051; 12767389.681923
1144.18; 25163.622; 12793005.163537
1145.20; 24803.335; 12818253.888672
1146.22; 24359.359; 12843050.66485
1147.24; 23824.213; 12867302.68533
1148.26; 23212.813; 12890932.326943
1149.27; 22556.02; 12913893.381531
1150.29; 21891.209; 12936177.687232
1151.31; 21252.87; 12957812.191926
1152.33; 20665.852; 12978849.13706
1153.35; 20142.757; 12999353.594109
1154.36; 19685.61; 13019392.695378
1155.38; 19290.587; 13039029.680352
1156.40; 18953.767; 13058323.797715
1157.42; 18675.695; 13077334.849578
1158.43; 18463.065; 13096129.453081
1159.45; 18326.921; 13114785.468065
1160.47; 18278.025; 13133391.70843
1161.49; 18321.119; 13152041.817329
1162.51; 18450.335; 13170823.462476
1163.52; 18647.682; 13189805.998569
1164.54; 18885.563; 13209030.686666
1165.56; 19132.76; 13228507.010406
1166.58; 19361.975; 13248216.665468
1167.60; 19556.227; 13268124.060924
1168.61; 19711.658; 13288189.678654
1169.63; 19835.564; 13308381.426663
1170.65; 19940.331; 13328679.823316
1171.67; 20035.764; 13349075.366859
1172.69; 20123.185; 13369559.90084
1173.70; 20194.265; 13390116.791348
1174.72; 20235.75; 13410715.911159
1175.74; 20238.679; 13431318.012648
1176.76; 20208.428; 13451889.320503
1177.78; 20170.863; 13472422.388671
1178.79; 20170.779; 13492955.371596
1179.81; 20261.466; 13513580.669492
1180.83; 20487.769; 13534436.334628
1181.85; 20868.133; 13555679.193742
1182.87; 21382.369; 13577445.523014
1183.88; 21970.687; 13599810.734355
1184.90; 22545.963; 13622761.551509
1185.92; 23016.564; 13646191.420856
1186.94; 23312.965; 13669923.012805
1187.96; 23409.488; 13693752.861648
1188.97; 23333.705; 13717505.56598
1189.99; 23159.893; 13741081.337429
1191.01; 22988.333; 13764482.468642
1192.03; 22916.967; 13787810.952415
1193.05; 23014.47; 13811238.689794
1194.06; 23303.083; 13834960.223184
1195.08; 23755.976; 13859142.78162
1196.10; 24308.813; 13883888.104528
1197.12; 24880.56; 13909215.440777
1198.14; 25395.961; 13935067.433414
1199.15; 25802.477; 13961333.241347
1200.17; 26077.291; 13987878.798745
1201.19; 26224.121; 14014573.822534
1202.21; 26263.164; 14041308.589883
1203.22; 26219.38; 14067998.787514
1204.24; 26113.832; 14094581.542118
1205.26; 25960.524; 14121008.235409
1206.28; 25768.309; 14147239.262031
1207.30; 25545.253; 14173243.227081
1208.31; 25302.239; 14198999.81433
1209.33; 25053.671; 14224503.370225
1210.35; 24815.142; 14249764.113478
1211.37; 24599.803; 14274805.651814
1212.39; 24415.966; 14299660.051658
1213.40; 24267.751; 14324363.575061
1214.42; 24158.872; 14348956.263964
1215.44; 24097.662; 14373486.644134
1216.46; 24100.391; 14398019.80257
1217.48; 24190.277; 14422644.460999
1218.49; 24391.397; 14447473.850191
1219.51; 24719.123; 14472636.850259
1220.53; 25170.714; 14498259.55096
1221.55; 25720.275; 14524441.680564
1222.57; 26321.113; 14551235.438053
1223.58; 26915.939; 14578634.702737
1224.60; 27452.291; 14606579.950257
1225.62; 27898.338; 14634979.254866
1226.64; 28253.625; 14663740.226199
1227.66; 28550.715; 14692803.622039
1228.67; 28846.612; 14722168.228485
1229.69; 29206.212; 14751898.891908
1230.71; 29682.7; 14782114.599602
1231.73; 30300.879; 14812959.586717
1232.75; 31048.498; 14844565.617547
1233.76; 31878.175; 14877016.224537
1234.78; 32719.274; 14910323.034016
1235.80; 33496.15; 14944420.669127
1236.82; 34147.447; 14979181.297027
1237.84; 34641.001; 15014444.341551
1238.85; 34980.335; 15050052.812739
1239.87; 35201.274; 15085886.190211
1240.89; 35359.994; 15121881.138029
1241.91; 35516.126; 15158035.022061
1242.93; 35715.769; 15194392.13365
1243.94; 35979.097; 15231017.30197
1244.96; 36295.846; 15267964.906895
1245.98; 36629.662; 15305252.322151
1247.00; 36929.846; 15342845.312065
1248.02; 37147.001; 15380659.356129
1249.03; 37248.108; 15418576.32246
1250.05; 37226.856; 15456471.655195
1251.07; 37106.5; 15494244.470974
1252.09; 36934.703; 15531842.405323
1253.10; 36772.055; 15569274.770383
1254.12; 36677.587; 15606610.970944
1255.14; 36695.21; 15643965.1114
1256.16; 36844.43; 15681471.150863
1257.18; 37117.28; 15719254.939775
1258.19; 37481.646; 15757409.638077
1259.21; 37889.569; 15795979.584694
1260.23; 38288.17; 15834955.289809
1261.25; 38630.647; 15874279.621027
1262.27; 38885.203; 15913863.079722
1263.28; 39040.52; 15953604.644811
1264.30; 39107.148; 15993414.033917
1265.32; 39114.853; 16033231.266846
1266.34; 39106.482; 16073039.9777
1267.36; 39129.339; 16112871.956637
1268.37; 39225.584; 16152801.908897
1269.39; 39423.494; 16192933.324759
1270.41; 39731.612; 16233378.391469
1271.43; 40137.425; 16274236.557687
1272.45; 40611.29; 16315577.098532
1273.46; 41114.994; 16357430.388037
1274.48; 41612.899; 16399790.523995
1275.50; 42082.743; 16442628.940283
1276.52; 42523.051; 16485915.571557
1277.54; 42955.096; 16529642.006105
1278.55; 43418.926; 16573840.599146
1279.57; 43964.796; 16618594.864097
1280.59; 44642.596; 16664039.099913
1281.61; 45492.184; 16710348.180529
1282.63; 46536.866; 16757720.701771
1283.64; 47780.888; 16806359.583993
1284.66; 49210.456; 16856453.704733
1285.68; 50796.847; 16908162.703078
1286.70; 52500.128; 16961605.568294
1287.72; 54272.573; 17016852.705759
1288.73; 56061.744; 17073921.141869
1289.75; 57813.847; 17132773.143622
1290.77; 59478.011; 17193319.192707
1291.79; 61011.587; 17255426.35578
1292.81; 62385.725; 17318932.331373
1293.82; 63589.794; 17383663.997977
1294.84; 64633.087; 17449457.691545
1295.86; 65542.741; 17516177.373944
1296.88; 66357.839; 17583726.790772
1297.89; 67120.674; 17652052.740358
1298.91; 67866.966; 17721138.383398
1299.93; 68617.076; 17790987.606192
1300.95; 69370.055; 17861603.32829
1301.97; 70101.875; 17932964.012235
1302.98; 70768.563; 18005003.355884
1304.00; 71314.208; 18077598.142295
1305.02; 71682.994; 18150568.336881
1306.04; 71833.316; 18223691.552731
1307.06; 71750.918; 18296730.891049
1308.07; 71457.227; 18369471.264823
1309.09; 71009.221; 18441755.587921
1310.11; 70488.749; 18513510.092897
1311.13; 69982.203; 18584748.955294
1312.15; 69555.113; 18655553.05928
1313.16; 69229.31; 18726025.509563
1314.18; 68971.223; 18796235.238533
1315.20; 68697.793; 18866166.626969
1316.22; 68301.298; 18935694.401196
1317.24; 67687.711; 19004597.570497
1318.25; 66817.23; 19072614.62732
1319.27; 65733.014; 19139527.998673
1320.29; 64566.358; 19205253.764809
1321.31; 63513.474; 19269907.740569
1322.33; 62788.595; 19333823.821018
1323.34; 62566.941; 19397514.26693
1324.36; 62935.7; 19461580.093726
1325.38; 63869.545; 19526596.534463
1326.40; 65239.438; 19593007.467362
1327.42; 66852.215; 19661060.137049
1328.43; 68507.687; 19730798.005837
1329.45; 70053.853; 19802109.804741
1330.47; 71421.609; 19874813.920676
1331.49; 72627.95; 19948746.039397
1332.51; 73748.157; 20023818.48056
1333.52; 74868.63; 20100031.515235
1334.54; 76038.583; 20177435.511254
1335.56; 77238.494; 20256060.965069
1336.58; 78376.295; 20335844.650835
1337.60; 79311.612; 20416580.44967
1338.61; 79898.197; 20497913.36664
1339.63; 80028.707; 20579379.136914
1340.65; 79666.32; 20660476.013318
1341.67; 78853.625; 20740745.601216
1342.69; 77698.17; 20819838.985252
1343.70; 76342.315; 20897552.167512
1344.72; 74929.491; 20973827.156312
1345.74; 73578.324; 21048726.715271
1346.76; 72371.189; 21122397.46252
1347.77; 71357.058; 21195035.868168
1348.79; 70562.932; 21266865.888317
1349.81; 70005.857; 21338128.830116
1350.83; 69699.034; 21409079.438759
1351.85; 69649.715; 21479979.842827
1352.86; 69851.242; 21551085.39308
1353.88; 70274.595; 21622621.898298
1354.90; 70864.988; 21694759.397962
1355.92; 71546.56; 21767590.708949
1356.94; 72234.416; 21841122.227511
1357.95; 72850.021; 21915280.405773
1358.97; 73334.692; 21989931.957496
1359.99; 73657.012; 22064911.617158
1361.01; 73812.85; 22140049.912824
1362.03; 73819.737; 22215195.220063
1363.04; 73709.379; 22290228.187091
1364.06; 73522.069; 22365070.480656
1365.08; 73305.041; 22439691.849532
1366.10; 73114.105; 22514118.85319
1367.12; 73015.7; 22588445.685199
1368.13; 73085.749; 22662843.823534
1369.15; 73402.713; 22737564.617732
1370.17; 74034.736; 22812928.784286
1371.19; 75023.542; 22889299.512455
1372.21; 76369.84; 22967040.714067
1373.22; 78025.477; 23046467.283197
1374.24; 79896.267; 23127798.23565
1375.26; 81856.718; 23211124.842776
1376.28; 83774.586; 23296403.756765
1377.30; 85540.212; 23383480.001825
1378.31; 87093.81; 23472137.742119
1379.33; 88443.665; 23562169.577006
1380.35; 89669.728; 23653449.490751
1381.37; 90910.008; 23745991.955667
1382.39; 92331.006; 23839980.93552
1383.40; 94087.3; 23935757.746886
1384.42; 96278.495; 24033765.100691
1385.44; 98913.251; 24134454.521502
1386.46; 101889.39; 24238173.523642
1387.48; 104996.2; 24345055.121758
1388.49; 107940.3; 24454933.69116
1389.51; 110391.18; 24567307.151701
1390.53; 112037.58; 24681356.577021
1391.55; 112643.28; 24796022.570416
1392.56; 112090.5; 24910125.860796
1393.58; 110402.06; 25022510.394391
1394.60; 107737.84; 25132182.865007
1395.62; 104367.04; 25238424.011385
1396.64; 100622.68; 25340853.555943
1397.65; 96847.978; 25439440.618866
1398.67; 93345.609; 25534462.420957
1399.69; 90339.056; 25626423.681385
1400.71; 87952.41; 25715955.439752
1401.73; 86210.54; 25803714.049435
1402.74; 85057.295; 25890298.705064
1403.76; 84385.839; 25976199.847561
1404.78; 84073.046; 26061782.580922
1405.80; 84009.581; 26147300.7091
1406.82; 84118.915; 26232930.134722
1407.83; 84361.821; 26318806.828519
1408.85; 84727.054; 26405055.313408
1409.87; 85212.976; 26491798.446173
1410.89; 85807.568; 26579146.847823
1411.91; 86474.648; 26667174.307763
1412.92; 87151.959; 26755891.241498
1413.94; 87762.575; 26845229.756129
1414.96; 88236.163; 26935050.362475
1415.98; 88532.753; 27025172.884338
1417.00; 88660.216; 27115425.158234
1418.01; 88678.312; 27205695.853581
1419.03; 88686.478; 27295974.86122
1420.05; 88798.008; 27386367.401138
1421.07; 89108.034; 27477075.534799
1422.09; 89665.046; 27568350.682531
1423.10; 90454.822; 27660429.788324
1424.12; 91401.976; 27753473.05613
1425.14; 92389.089; 27847521.162258
1426.16; 93288.428; 27942484.755941
1427.18; 93997.983; 28038170.64632
1428.19; 94472.79; 28134339.869898
1429.21; 94744.085; 28230785.259732
1430.23; 94922.077; 28327411.837832
1431.25; 95181.928; 28424302.93323
1432.27; 95736.05; 28521758.100465
1433.28; 96798.519; 28620294.815969
1434.30; 98548.967; 28720613.412056
1435.32; 101103.53; 28823532.447687
1436.34; 104499.3; 28929908.230519
1437.36; 108695.87; 29040555.938637
1438.37; 113593.7; 29156189.422015
1439.39; 119064.3; 29277391.742271
1440.41; 124983.54; 29404619.593628
1441.43; 131257.64; 29538234.204726
1442.44; 137833.25; 29678542.503784
1443.46; 144687.97; 29825828.617484
1444.48; 151804.65; 29980359.196028
1445.50; 159139.35; 30142356.182611
1446.52; 166596.59; 30311944.324019
1447.53; 174023.71; 30489092.953153
1448.55; 181230.06; 30673577.330351
1449.57; 188027.4; 30864981.111868
1450.59; 194279.07; 31062748.816919
1451.61; 199940.49; 31266279.610644
1452.62; 205075.56; 31475037.679367
1453.64; 209840.4; 31688646.150635
1454.66; 214437.67; 31906934.447542
1455.68; 219054.55; 32129922.529417
1456.70; 223803.64; 32357744.979739
1457.71; 228684.97; 32590536.416046
1458.73; 233579.95; 32828310.722776
1459.75; 238277.19; 33070866.617367
1460.77; 242520.24; 33317741.760444
1461.79; 246061.24; 33568221.481669
1462.80; 248705.02; 33821392.464841
1463.82; 250334.18; 34076221.854669
1464.84; 250913.27; 34331640.737607
1465.86; 250478.16; 34586616.691678
1466.88; 249119.11; 34840209.195789
1467.89; 246965.52; 35091609.440877
1468.91; 244175.11; 35340169.163988
1469.93; 240925.52; 35585420.951396
1470.95; 237403.27; 35827087.231186
1471.97; 233785.36; 36065070.641847
1472.98; 230213.46; 36299418.013087
1474.00; 226765.21; 36530255.212783
1475.02; 223431.94; 36757699.2835
1476.04; 220112.32; 36981764.126144
1477.06; 216628.22; 37202282.303102
1478.07; 212762.36; 37418865.200174
1479.09; 208310.24; 37630916.031009
1480.11; 203133.26; 37837696.920773
1481.13; 197198.55; 38038436.532951
1482.15; 190594.03; 38232453.028392
1483.16; 183513.95; 38419262.309054
1484.18; 176218.53; 38598645.173328
1485.20; 168978.81; 38770658.312918
1486.22; 162022.13; 38935589.854791
1487.23; 155493.83; 39093875.865265
1488.25; 149445.8; 39246005.240898
1489.27; 143854.83; 39392443.252253
1490.29; 138664.23; 39533597.453887
1491.31; 133834.56; 39669835.259325
1492.32; 129385.68; 39801544.301916
1493.34; 125414.1; 39929210.440999
1494.36; 122076.99; 40053479.552376
1495.38; 119545.53; 40175171.746882
1496.40; 117941.01; 40295230.607606
1497.41; 117275.14; 40414611.637342
1498.43; 117416.36; 40534136.42053
1499.45; 118097.02; 40654354.089378
1500.47; 118963.15; 40775453.445979
1501.49; 119653.72; 40897255.774639
1502.50; 119885.14; 41019293.671481
1503.52; 119513.6; 41140953.354453
1504.54; 118554.67; 41261636.891415
1505.56; 117154.02; 41380894.631393
1506.58; 115520.66; 41498489.673816
1507.59; 113847.66; 41614381.677287
1508.61; 112250.09; 41728647.423226
1509.63; 110742.91; 41841378.928094
1510.65; 109266.41; 41952607.420181
1511.67; 107747.73; 42062289.956913
1512.68; 106172.52; 42170368.996065
1513.70; 104635.97; 42276883.894241
1514.72; 103349.51; 42382089.233946
1515.74; 102596.09; 42486527.628972
1516.76; 102646.62; 42591017.462751
1517.77; 103665.55; 42696544.520544
1518.79; 105638.94; 42804080.403019
1519.81; 108351.62; 42914377.672207
1520.83; 111423.71; 43027802.203875
1521.85; 114397.21; 43144253.629248
1522.86; 116846.83; 43263198.657185
1523.88; 118482.42; 43383808.647297
1524.90; 119213.86; 43505163.214069
1525.92; 119162; 43626464.989971
1526.94; 118616.1; 43747211.058144
1527.95; 117953.06; 43867282.18623
1528.97; 117542.59; 43986935.468069
1529.99; 117662.77; 44106711.086821
1531.01; 118444.6; 44227282.578855
1532.03; 119853.6; 44349288.368962
1533.04; 121706.6; 44473180.43897
1534.06; 123714.72; 44599116.684847
1535.08; 125539.95; 44726910.936595
1536.10; 126853.6; 44856042.423954
1537.11; 127386.97; 44985716.864783
1538.13; 126968.15; 45114964.962808
1539.15; 125541.29; 45242760.583362
1540.17; 123167.42; 45368139.69936
1541.19; 120007.51; 45490302.161551
1542.20; 116291.19; 45608681.578655
1543.22; 112276.45; 45722974.160091
1544.24; 108207.56; 45833124.788484
1545.26; 104279.27; 45939276.587152
1546.28; 100613.73; 46041697.018215
1547.29; 97253.943; 46140697.335003
1548.31; 94173.615; 46236562.011697
1549.33; 91299.302; 46329500.76149
1550.35; 88538.62; 46419629.256129
1551.37; 85807.552; 46506977.64089
1552.38; 83051.293; 46591520.272874
1553.40; 80255.533; 46673216.942127
1554.42; 77447.658; 46752055.316164
1555.44; 74689.32; 46828085.820897
1556.46; 72062.816; 46901442.658133
1557.47; 69653.964; 46972347.387633
1558.49; 67534.094; 47041094.181474
1559.51; 65743.871; 47108018.604708
1560.53; 64281.839; 47173454.742577
1561.55; 63100.633; 47237688.464197
1562.56; 62112.999; 47300916.816594
1563.58; 61207.942; 47363223.860675
1564.60; 60274.554; 47424580.755569
1565.62; 59228.136; 47484872.442321
1566.64; 58031.435; 47543945.9387
1567.65; 56704.017; 47601668.18075
1568.67; 55315.629; 47657977.104434
1569.69; 53964.125; 47712910.255423
1570.71; 52743.788; 47766601.155457
1571.73; 51713.737; 47819243.507692
1572.74; 50876.916; 47871034.012808
1573.76; 50177.325; 47922112.36456
1574.78; 49517.345; 47972518.88491
1575.80; 48790.154; 48022185.156439
1576.82; 47916.719; 48070962.308409
1577.83; 46874.798; 48118678.829995
1578.85; 45709.731; 48165209.364047
1579.87; 44522.788; 48210531.640626
1580.89; 43440.514; 48254752.209223
1581.90; 42575.1; 48298091.823707
1582.92; 41988.9; 48340834.71229
1583.94; 41674.8; 48383257.860411
1584.96; 41558.606; 48425562.727909
1585.98; 41522.103; 48467830.436573
1586.99; 41438.548; 48510013.090601
1588.01; 41208.607; 48551961.674588
1589.03; 40785.242; 48593479.291239
1590.05; 40180.525; 48634381.332021
1591.07; 39453.871; 48674543.669758
1592.08; 38687.396; 48713925.769111
1593.10; 37957.792; 48752565.163783
1594.12; 37314.165; 48790549.374081
1595.14; 36768.081; 48827977.693857
1596.16; 36297.082; 48864926.556952
1597.17; 35858.189; 48901428.646415
1598.19; 35405.103; 48937469.513905
1599.21; 34902.728; 48972998.985342
1600.23; 34334.883; 49007950.414181
1601.25; 33704.385; 49042260.023951
1602.26; 33027.663; 49075880.759592
1603.28; 32327.463; 49108788.721456
1604.30; 31626.91; 49140983.550997
1605.32; 30946.506; 49172485.759078
1606.34; 30303.722; 49203333.64051
1607.35; 29713.595; 49233580.797843
1608.37; 29188.677; 49263293.61118
1609.39; 28737.64; 49292547.288871
1610.41; 28363.183; 49321419.78529
1611.43; 28060.755; 49349984.422755
1612.44; 27819.541; 49378303.514585
1613.46; 27626.085; 49406425.676855
1614.48; 27469.461; 49434388.402391
1615.50; 27345.765; 49462225.211565
1616.52; 27259.591; 49489974.298659
1617.53; 27221.14; 49517684.244998
1618.55; 27239.483; 49545412.863686
1619.57; 27314.238; 49573217.579337
1620.59; 27428.986; 49601139.103562
1621.61; 27549.418; 49629183.222317
1622.62; 27627.677; 49657307.005783
1623.64; 27612.185; 49685415.018959
1624.66; 27460.232; 49713368.349944
1625.68; 27149.581; 49741005.452224
1626.70; 26685.61; 49768170.252171
1627.71; 26101.915; 49794740.87488
1628.73; 25454.319; 49820652.272781
1629.75; 24810.057; 49845907.840602
1630.77; 24234.989; 49870578.013664
1631.78; 23781.828; 49894786.888673
1632.80; 23481.704; 49918690.250358
1633.82; 23340.249; 49942449.617158
1634.84; 23338.359; 49966207.059047
1635.86; 23436.98; 49990064.893237
1636.87; 23584.871; 50014073.274573
1637.89; 23728.027; 50038227.381689
1638.91; 23819.314; 50062474.415975
1639.93; 23826.724; 50086728.992772
1640.95; 23738.583; 50110893.846001
1641.96; 23564.44; 50134881.428842
1642.98; 23331.078; 50158631.459414
1644.00; 23074.35; 50182120.152502
1645.02; 22828.808; 50205358.893746
1646.04; 22618.015; 50228383.056606
1647.05; 22448.521; 50251234.682113
1648.07; 22309.499; 50273944.789274
1649.09; 22178.279; 50296521.319887
1650.11; 22029.982; 50318946.890463
1651.13; 21847.923; 50341187.13299
1652.14; 21631.042; 50363206.600678
1653.16; 21395.58; 50384986.378196
1654.18; 21170.232; 50406536.761333
1655.20; 20986.405; 50427900.016056
1656.22; 20867.019; 50449141.741251
1657.23; 20817.903; 50470333.467915
1658.25; 20824.889; 50491532.306493
1659.27; 20857.672; 50512764.516301
1660.29; 20878.989; 50534018.426484
1661.31; 20855.814; 50555248.745498
1662.32; 20768.561; 50576390.244097
1663.34; 20615.174; 50597375.602038
1664.36; 20408.95; 50618151.032652
1665.38; 20171.268; 50638684.513275
1666.40; 19922.26; 50658964.514217
1667.41; 19673.039; 50678990.819176
1668.43; 19422.376; 50698761.959508
1669.45; 19158.892; 50718264.885261
1670.47; 18867.749; 50737471.439128
1671.49; 18539.13; 50756343.473715
1672.50; 18175.29; 50774845.134341
1673.52; 17793.5; 50792958.149806
1674.54; 17423.827; 50810694.853494
1675.56; 17102.437; 50828104.396032
1676.57; 16862.633; 50845269.828312
1677.59; 16726.388; 50862296.569845
1678.61; 16698.819; 50879295.246614
1679.63; 16766.909; 50896363.236395
1680.65; 16902.466; 50913569.217916
1681.66; 17068.096; 50930943.802685
1682.68; 17224.4; 50948477.498159
1683.70; 17336.65; 50966125.459525
1684.72; 17379.687; 50983817.230839
1685.74; 17340.543; 51001469.155616
1686.75; 17218.906; 51018997.258888
1687.77; 17025.902; 51036328.892877
1688.79; 16781.76; 51053412.00014
1689.81; 16512.773; 51070221.290479
1690.83; 16247.864; 51086760.915218
1691.84; 16014.945; 51103063.43822
1692.86; 15837.338; 51119185.16487
1693.88; 15730.626; 51135198.263603
1694.90; 15700.377; 51151180.569595
1695.92; 15741.154; 51167204.385254
1696.93; 15837.08; 51183325.849688
1697.95; 15963.929; 51199576.440538
1698.97; 16092.467; 51215957.877241
1699.99; 16192.533; 51232441.177246
1701.01; 16237.241; 51248969.987945
1702.02; 16206.686; 51265467.695288
1703.04; 16090.655; 51281847.287646
1704.06; 15889.966; 51298022.586885
1705.08; 15616.273; 51313919.278559
1706.10; 15290.353; 51329484.198083
1707.11; 14939.112; 51344691.569437
1708.13; 14591.746; 51359545.336723
1709.15; 14275.645; 51374077.327504
1710.17; 14012.693; 51388341.644262
1711.19; 13816.523; 51402406.26815
1712.20; 13691.136; 51416343.253659
1713.22; 13630.996; 51430219.019189
1714.24; 13622.464; 51444086.099246
1715.26; 13646.252; 51457977.394514
1716.28; 13680.492; 51471903.545321
1717.29; 13704.025; 51485853.651224
1718.31; 13699.543; 51499799.194906
1719.33; 13656.256; 51513700.674255
1720.35; 13571.68; 51527516.058735
1721.37; 13452.152; 51541209.769266
1722.38; 13311.725; 51554760.530448
1723.40; 13169.328; 51568166.337677
1724.42; 13044.528; 51581445.104733
1725.44; 12952.698; 51594630.392217
1726.45; 12900.8; 51607762.850093
1727.47; 12885.085; 51620879.310705
1728.49; 12891.583; 51634002.386375
1729.51; 12899.526; 51647133.547285
1730.53; 12886.85; 51660251.804691
1731.54; 12836.18; 51673318.481775
1732.56; 12739.396; 51686286.636872
1733.58; 12599.315; 51699112.19629
1734.60; 12427.979; 51711763.342667
1735.62; 12242.25; 51724225.424997
1736.63; 12058.411; 51736500.366635
1737.65; 11887.765; 51748601.597924
1738.67; 11734.804; 51760547.121919
1739.69; 11598.406; 51772353.798836
1740.71; 11475.26; 51784035.118666
1741.72; 11363.797; 51795602.973877
1742.74; 11266.713; 51807072.001748
1743.76; 11190.829; 51818463.783121
1744.78; 11144.233; 51829808.131419
1745.80; 11131.902; 51841139.926966
1746.81; 11151.76; 51852491.937791
1747.83; 11193.04; 51863885.969329
1748.85; 11237.908; 51875325.674388
1749.87; 11266.007; 51886793.982972
1750.89; 11260.32; 51898256.503097
1751.90; 11212.204; 51909670.042861
1752.92; 11123.71; 51920993.499326
1753.94; 11006.37; 51932197.508554
1754.96; 10876.943; 51943269.766869
1755.98; 10751.735; 51954214.569552
1756.99; 10641.53; 51965047.188033
1758.01; 10548.794; 51975785.404818
1759.03; 10467.865; 51986441.239848
1760.05; 10387.696; 51997015.465734
1761.07; 10295.878; 52007496.224975
1762.08; 10182.46; 52017861.530076
1763.10; 10042.402; 52028084.262453
1764.12; 9876.2496; 52038137.858329
1765.14; 9689.3327; 52048001.180892
1766.16; 9490.2204; 52057661.815713
1767.17; 9289.1367; 52067117.756072
1768.19; 9096.7285; 52076377.833125
1769.21; 8923.1437; 52085461.208341
1770.23; 8777.1357; 52094395.95374
1771.24; 8664.9521; 52103216.501099
1772.26; 8589.0602; 52111959.793721
1773.28; 8547.1034; 52120660.37611
1774.30; 8531.6539; 52129345.231588
1775.32; 8531.1884; 52138029.613259
1776.33; 8532.3015; 52146715.128043
1777.35; 8522.6606; 52155390.828756
1778.37; 8493.8424; 52164037.19381
1779.39; 8443.1556; 52172631.961924
1780.41; 8373.8778; 52181156.208152
1781.42; 8293.89; 52189599.030266
1782.44; 8213.2398; 52197959.753935
1783.46; 8141.475; 52206247.424142
1784.48; 8085.5598; 52214478.175116
1785.50; 8048.848; 52222671.555016
1786.51; 8031.1268; 52230846.895566
1787.53; 8029.3729; 52239020.450656
1788.55; 8038.7245; 52247203.525353
1789.57; 8053.3055; 52255401.442817
1790.59; 8066.8079; 52263613.105162
1791.60; 8072.9999; 52271831.070658
1792.62; 8066.4007; 52280042.318525
1793.64; 8043.2334; 52288229.983074
1794.66; 8002.4888; 52296376.171361
1795.68; 7946.6885; 52304465.557291
1796.69; 7881.8657; 52312488.956505
1797.71; 7816.4756; 52320445.791335
1798.73; 7759.3345; 52328344.459069
1799.75; 7717.1259; 52336200.160243
1800.77; 7692.2771; 52344030.566381
1801.78; 7681.9932; 52351850.503938
1802.80; 7678.8869; 52359667.279407
1803.82; 7673.1009; 52367478.165041
1804.84; 7655.2809; 52375270.91062
1805.86; 7619.4321; 52383027.163668
1806.87; 7564.7159; 52390727.717974
1807.89; 7495.5973; 52398357.91253
1808.91; 7420.3199; 52405911.477999
1809.93; 7348.2435; 52413391.672764
1810.95; 7286.9375; 52420809.460742
1811.96; 7239.9679; 52428179.435646
1812.98; 7206.0383; 52435514.871704
1814.00; 7179.6787; 52442823.474793
1815.02; 7153.1684; 52450105.091573
1816.04; 7119.0217; 52457351.948441
1817.05; 7072.2392; 52464551.182782
1818.07; 7011.6659; 52471688.756102
1819.09; 6940.1132; 52478753.491828
1820.11; 6863.2952; 52485740.030175
1821.12; 6787.9648; 52492649.885462
1822.14; 6719.8325; 52499490.384978
1823.16; 6661.873; 52506271.884175
1824.18; 6613.4865; 52513004.128058
1825.20; 6570.7359; 52519692.853623
1826.21; 6527.5938; 52526337.662411
1827.23; 6477.8774; 52532931.862056
1828.25; 6417.3642; 52539464.461885
1829.27; 6345.5199; 52545923.927323
1830.29; 6266.3342; 52552302.785127
1831.30; 6187.9524; 52558601.853666
1832.32; 6121.0762; 52564832.845108
1833.34; 6076.4273; 52571018.385843
1834.36; 6061.8487; 52577189.086271
1835.38; 6079.7777; 52583378.037613
1836.39; 6125.7992; 52589613.836838
1837.41; 6188.7709; 52595913.738565
1838.43; 6252.628; 52602278.644012
1839.45; 6299.5331; 52608691.296875
1840.47; 6313.6575; 52615118.327738
1841.48; 6284.6747; 52621515.855375
1842.50; 6210.1005; 52627837.46968
1843.52; 6095.9029; 52634042.835824
1844.54; 5955.2629; 52640105.036495
1845.56; 5805.8428; 52646015.133954
1846.57; 5666.2827; 52651783.165221
1847.59; 5552.7815; 52657435.657184
1848.61; 5476.5144; 52663010.512482
1849.63; 5442.3364; 52668550.57604
1850.65; 5448.8453; 52674097.265434
1851.66; 5489.5419; 52679685.382168
1852.68; 5554.6303; 52685339.75612
1853.70; 5632.976; 52691073.882616
1854.72; 5713.8418; 52696890.326956
1855.74; 5788.1911; 52702782.455738
1856.75; 5849.497; 52708736.991233
1857.77; 5894.0815; 52714736.911909
1858.79; 5921.0404; 52720764.275521
1859.81; 5931.8006; 52726802.592596
1860.83; 5929.3761; 52732838.441642
1861.84; 5917.4293; 52738862.129323
1862.86; 5899.3189; 52744867.381387
1863.88; 5877.3627; 52750850.282947
1864.90; 5852.5263; 52756807.902209
1865.91; 5824.6463; 52762737.140848
1866.93; 5793.1228; 52768634.289827
1867.95; 5757.8435; 52774495.526034
1868.97; 5719.9938; 52780318.232852
1869.99; 5682.4201; 52786102.691277
1871.00; 5649.3612; 52791853.497209
1872.02; 5625.5799; 52797580.094786
1873.04; 5615.1438; 52803296.068907
1874.06; 5620.2313; 52809017.221863
1875.08; 5640.3273; 52814758.831647
1876.09; 5672.0426; 52820532.726299
1877.11; 5709.5909; 52826344.843481
1878.13; 5745.7735; 52832193.792919
1879.15; 5773.2198; 52838070.681542
1880.17; 5785.6248; 52843960.197975
1881.18; 5778.7911; 52849842.757982
1882.20; 5751.3695; 52855697.403917
1883.22; 5705.2457; 52861505.097816
1884.24; 5645.5277; 52867252.00136
1885.26; 5580.0714; 52872932.273231
1886.27; 5518.4936; 52878549.861558
1887.29; 5470.6962; 52884118.7942
1888.31; 5445.0732; 52889661.643722
1889.33; 5446.7409; 52895206.19095
1890.35; 5476.2452; 52900780.772304
1891.36; 5529.1755; 52906409.234319
1892.38; 5596.9251; 52912106.662565
1893.40; 5668.5177; 52917876.968981
1894.42; 5733.0667; 52923712.983479
1895.44; 5782.1951; 52929599.008579
1896.45; 5811.7055; 52935515.073962
1897.47; 5822.0003; 52941441.618995
1898.49; 5817.1459; 52947363.222548
1899.51; 5802.9164; 52953270.341084
1900.53; 5784.485; 52959158.69725
1901.54; 5764.5378; 52965026.747974
1902.56; 5742.4192; 52970872.282893
1903.58; 5714.5553; 52976689.453603
1904.60; 5675.9659; 52982467.341951
1905.62; 5622.3271; 52988190.628303
1906.63; 5551.8988; 52993842.22167
1907.65; 5466.7147; 52999407.101326
1908.67; 5372.7027; 53004876.280783
1909.69; 5278.7446; 53010249.815029
1910.71; 5194.9828; 53015538.083308
1911.72; 5130.8408; 53020761.057885
1912.74; 5093.2374; 53025945.753802
1913.76; 5085.3486; 53031122.419275
1914.78; 5106.1038; 53036320.212633
1915.79; 5150.4294; 53041563.127508
1916.81; 5210.1356; 53046866.820693
1917.83; 5275.2696; 53052236.817482
1918.85; 5335.7189; 53057668.349105
1919.87; 5382.8196; 53063147.827166
1920.88; 5410.7032; 53068655.689578
1921.90; 5417.1253; 53074170.089343
1922.92; 5403.5779; 53079670.698465
1923.94; 5374.6263; 53085141.836156
1924.96; 5336.5942; 53090574.258778
1925.97; 5295.9143; 53095965.271013
1926.99; 5257.5836; 53101317.264246
1928.01; 5224.1549; 53106635.228539
1929.03; 5195.5454; 53111924.069587
1930.05; 5169.681; 53117186.581798
1931.06; 5143.7149; 53122422.661611
1932.08; 5115.3593; 53127629.876673
1933.10; 5083.8361; 53132805.002462
1934.12; 5050.0992; 53137945.785547
1935.14; 5016.2652; 53143052.127036
1936.15; 4984.4966; 53148126.129447
1937.17; 4955.8037; 53153170.923717
1938.19; 4929.2737; 53158188.711673
1939.21; 4902.0887; 53163178.826425
1940.23; 4870.4045; 53168136.688038
1941.24; 4830.848; 53173054.282797
1942.26; 4782.1514; 53177922.306594
1943.28; 4726.3767; 53182733.554124
1944.30; 4669.2912; 53187486.691094
1945.32; 4619.7087; 53192189.355157
1946.33; 4587.9025; 53196859.641883
1947.35; 4583.4529; 53201525.399185
1948.37; 4613.0294; 53206221.264025
1949.39; 4678.6157; 53210983.892933
1950.41; 4776.5806; 53215846.245881
1951.42; 4897.8119; 53220832.007068
1952.44; 5028.9276; 53225951.23832
1953.46; 5154.3742; 53231198.168847
1954.48; 5259.056; 53236551.660957
1955.50; 5331.0166; 53241978.405796
1956.51; 5363.649; 53247438.368995
1957.53; 5356.9564; 53252891.519449
1958.55; 5317.5403; 53258304.545997
1959.57; 5257.2472; 53263656.196776
1960.58; 5190.7121; 53268940.117735
1961.60; 5132.317; 53274164.595011
1962.62; 5093.2527; 53279349.306432
1963.64; 5079.3646; 53284519.880422
1964.66; 5090.2682; 53289701.553784
1965.67; 5119.883; 53294913.373702
1966.69; 5158.1701; 53300164.168291
1967.71; 5193.5686; 53305450.997013
1968.73; 5215.5062; 53310760.157239
1969.75; 5216.4317; 53316070.259573
1970.76; 5193.0274; 53321356.537378
1971.78; 5146.5223; 53326595.474992
1972.80; 5082.2379; 53331768.973844
1973.82; 5008.601; 53336867.513481
1974.84; 4935.8461; 53341891.991844
1975.85; 4874.5613; 53346854.084881
1976.87; 4834.1701; 53351775.061417
1977.89; 4821.4493; 53356683.088751
1978.91; 4839.2464; 53361609.232764
1979.93; 4885.6456; 53366582.609118
1980.94; 4953.8563; 53371625.421068
1981.96; 5033.0125; 53376748.810562
1982.98; 5109.8676; 53381950.435238
1984.00; 5171.1146; 53387214.406769
1985.02; 5205.8395; 53392513.726757
1986.03; 5207.5339; 53397814.771533
1987.05; 5175.1873; 53403082.888915
1988.07; 5113.2275; 53408287.933865
1989.09; 5030.3881; 53413408.651863
1990.11; 4937.8506; 53418435.170662
1991.12; 4847.1371; 53423369.347047
1992.14; 4768.2043; 53428223.173224
1993.16; 4708.0428; 53433015.757659
1994.18; 4669.9068; 53437769.521286
1995.20; 4653.1587; 53442506.236005
1996.21; 4653.6591; 53447243.460135
1997.23; 4664.6349; 53451991.857147
1998.25; 4677.9652; 53456753.823831
1999.27; 4685.7838; 53461523.749516
2000.29; 4682.185; 53466290.011814
2001.30; 4664.6881; 53471038.463021
2002.32; 4635.0429; 53475756.736693
2003.34; 4599.0284; 53480438.34913
2004.36; 4565.1321; 53485085.456563
2005.37; 4542.3486; 53489709.371438
2006.39; 4537.6755; 53494328.529279
2007.41; 4554.0654; 53498964.371379
2008.43; 4589.5197; 53503636.304381
2009.45; 4637.6658; 53508357.248047
2010.46; 4689.6682; 53513131.127938
2011.48; 4736.849; 53517953.035847
2012.50; 4773.1341; 53522811.880415
2013.52; 4796.4969; 53527694.507297
2014.54; 4808.9319; 53532589.7925
2015.55; 4815.0217; 53537491.276797
2016.57; 4819.6594; 53542397.482072
2017.59; 4825.7727; 53547309.910428
2018.61; 4832.8605; 53552229.553838
2019.63; 4836.8352; 53557153.243316
2020.64; 4831.1902; 53562071.186512
2021.66; 4809.0685; 53566966.61068
2022.68; 4765.5453; 53571817.730171
2023.70; 4699.4329; 53576601.55012
2024.72; 4614.1185; 53581298.523608
2025.73; 4517.2734; 53585896.913009
2026.75; 4419.5789; 53590395.853607
2027.77; 4332.815; 53594806.472325
2028.79; 4267.7345; 53599150.841854
2029.81; 4232.1097; 53603458.94693
2030.82; 4229.2672; 53607764.158488
2031.84; 4257.3429; 53612097.94981
2032.86; 4309.417; 53616484.750306
2033.88; 4374.591; 53620937.89515
2034.90; 4439.9189; 53625457.540986
2035.91; 4492.9081; 53630031.127508
2036.93; 4524.1019; 53634636.468063
2037.95; 4529.133; 53639246.930005
2038.97; 4509.6721; 53643837.581653
2039.99; 4472.9356; 53648390.837058
2041.00; 4429.7968; 53652900.179096
2042.02; 4391.9774; 53657371.02258
2043.04; 4369.0964; 53661818.574159
2044.06; 4366.4271; 53666263.408497
2045.08; 4383.9896; 53670726.120739
2046.09; 4417.1713; 53675222.61051
2047.11; 4458.5641; 53679761.236322
2048.13; 4500.3245; 53684342.372473
2049.15; 4536.2386; 53688960.067573
2050.17; 4562.848; 53693604.849952
2051.18; 4579.3961; 53698266.477544
2052.20; 4586.809; 53702935.651214
2053.22; 4586.2747; 53707604.280955
2054.24; 4578.0775; 53712264.566323
2055.25; 4561.1845; 53716907.655299
2056.27; 4533.7276; 53721522.794308
2057.29; 4494.1497; 53726097.644736
2058.31; 4442.5226; 53730619.941029
2059.33; 4381.4994; 53735080.118321
2060.34; 4316.5279; 53739474.157418
2061.36; 4255.2395; 53743805.807573
2062.38; 4206.2118; 53748087.549649
2063.40; 4177.475; 53752340.038966
2064.42; 4175.1435; 53756590.15493
2065.43; 4202.4312; 53760868.048566
2066.45; 4259.1379; 53765203.667176
2067.47; 4341.5596; 53769623.187538
2068.49; 4442.7354; 53774145.700454
2069.51; 4552.9912; 53778780.449043
2070.52; 4660.8175; 53783524.960143
2071.54; 4754.1438; 53788364.473419
2072.56; 4822.0041; 53793273.065518
2073.58; 4856.4208; 53798216.692301
2074.60; 4854.1467; 53803158.004216
2075.61; 4817.7856; 53808062.30203
2076.63; 4755.8495; 53812903.55163
2077.65; 4681.5357; 53817669.152991
2078.67; 4610.351; 53822362.291378
2079.69; 4557.0795; 53827001.201628
2080.70; 4532.827; 53831615.423898
2081.72; 4542.8951; 53836239.895064
2082.74; 4586.0122; 53840908.257616
2083.76; 4655.0559; 53845646.903658
2084.78; 4738.9704; 53850470.970983
2085.79; 4825.2709; 53855382.888562
2086.81; 4902.4314; 53860373.352145
2087.83; 4961.5905; 53865424.037221
2088.85; 4997.3202; 53870511.093589
2089.87; 5007.537; 53875608.550133
2090.88; 4992.8869; 53880691.093587
2091.90; 4956.0048; 53885736.092651
2092.92; 4900.9411; 53890725.03924
2093.94; 4832.8443; 53895644.66615
2094.96; 4757.78; 53900487.880916
2095.97; 4682.4695; 53905254.432852
2096.99; 4613.768; 53909951.049586
2098.01; 4557.8623; 53914590.756688
2099.03; 4519.3512; 53919191.261221
2100.04; 4500.4966; 53923772.572561
2101.06; 4500.9269; 53928354.32188
2102.08; 4517.9417; 53932953.391596
2103.10; 4547.3538; 53937582.401547
2104.12; 4584.6082; 53942249.334812
2105.13; 4625.8225; 53946958.222512
2106.15; 4668.4304; 53951710.483186
2107.17; 4711.2659; 53956506.3486
2108.19; 4754.1377; 53961345.855637
2109.21; 4797.1131; 53966229.10975
2110.22; 4839.8126; 53971155.830087
2111.24; 4880.974; 53976124.450974
2112.26; 4918.4192; 53981131.189471
2113.28; 4949.4005; 53986169.465573
2114.30; 4971.1822; 53991229.914575
2115.31; 4981.6631; 53996301.032615
2116.33; 4979.8653; 54001370.32062
2117.35; 4966.1872; 54006425.684879
2118.37; 4942.3869; 54011456.82145
2119.39; 4911.3222; 54016456.335567
2120.40; 4876.4969; 54021420.398942
2121.42; 4841.4763; 54026348.812946
2122.44; 4809.2562; 54031244.428183
2123.46; 4781.6892; 54036111.981501
2124.48; 4759.1088; 54040956.548927
2125.49; 4740.28; 54045781.949431
2126.51; 4722.7629; 54050589.51829
2127.53; 4703.6638; 54055377.645061
2128.55; 4680.6172; 54060142.311396
2129.57; 4652.7312; 54064878.590961
2130.58; 4621.1915; 54069582.764481
2131.60; 4589.2924; 54074254.46609
2132.62; 4561.8288; 54078898.210996
2133.64; 4543.9964; 54083523.803271
2134.66; 4540.1225; 54088145.452047
2135.67; 4552.6244; 54092779.827255
2136.69; 4581.5238; 54097443.620752
2137.71; 4624.6576; 54102151.322626
2138.73; 4678.4882; 54106913.821684
2139.75; 4739.2072; 54111738.130109
2140.76; 4803.7389; 54116628.129036
2141.78; 4870.2977; 54121585.881905
2142.80; 4938.3318; 54126612.890569
2143.82; 5007.9146; 54131710.731518
2144.84; 5078.8436; 54136880.775192
2145.85; 5149.8086; 54142123.058129
2146.87; 5217.9566; 54147434.712767
2147.89; 5279.0409; 54152808.548597
2148.91; 5328.1379; 54158232.363108
2149.92; 5360.7297; 54163689.354568
2150.94; 5373.8328; 54169159.684458
2151.96; 5366.8434; 54174622.899473
2152.98; 5341.8494; 54180060.671682
2154.00; 5303.3164; 54185459.218921
2155.01; 5257.2245; 54190810.846603
2156.03; 5209.8806; 54196114.280264
2157.05; 5166.7132; 54201373.771305
2158.07; 5131.3582; 54206597.272576
2159.09; 5105.264; 54211794.211038
2160.10; 5087.8929; 54216973.466434
2161.12; 5077.4285; 54222142.069546
2162.14; 5071.7398; 54227304.881803
2163.16; 5069.27; 54232465.179936
2164.18; 5069.5377; 54237625.75056
2165.19; 5073.0642; 54242789.91105
2166.21; 5080.7483; 54247961.893582
2167.23; 5092.9247; 54253146.271134
2168.25; 5108.4949; 54258346.498471
2169.27; 5124.5331; 54263563.052064
2170.28; 5136.6314; 54268791.921154
2171.30; 5139.9859; 54274024.205043
2172.32; 5130.9353; 54279247.275796
2173.34; 5108.4439; 54284447.451256
2174.36; 5074.9829; 54289613.564855
2175.37; 5036.4215; 54294740.424632
2176.39; 5000.8625; 54299831.086897
2177.41; 4976.7259; 54304897.179071
2178.43; 4970.6623; 54309957.098799
2179.45; 4985.9557; 54315032.586534
2180.46; 5021.9083; 54320144.67246
2181.48; 5074.3573; 54325310.149226
2182.50; 5137.0712; 54330539.466056
2183.52; 5203.478; 54335836.38217
2184.54; 5268.101; 54341199.081632
2185.55; 5327.2487; 54346621.990973
2186.57; 5378.8558; 54352097.434029
2187.59; 5421.743; 54357616.534462
2188.61; 5454.8148; 54363169.300535
2189.63; 5476.7099; 54368744.35489
2190.64; 5486.1849; 54374329.054368
2191.66; 5483.1201; 54379910.633998
2192.68; 5469.6776; 54385478.529728
2193.70; 5450.9678; 54391027.379764
2194.71; 5434.6929; 54396559.662587
2195.73; 5429.6032; 54402086.764331
2196.75; 5443.0982; 54407627.603386
2197.77; 5478.7153; 54413204.699142
2198.79; 5534.4154; 54418838.495178
2199.80; 5602.3908; 54424541.487218
2200.82; 5670.6476; 54430313.96174
2201.84; 5726.0062; 54436142.788986
2202.86; 5757.6502; 54442003.828439
2203.88; 5760.1262; 54447867.388361
2204.89; 5734.8511; 54453705.219333
2205.91; 5689.6616; 54459497.049322
2206.93; 5636.5795; 54465234.843982
2207.95; 5588.5306; 54470923.726962
2208.97; 5556.0501; 54476579.546224
2209.98; 5544.9389; 54482224.054761
2211.00; 5555.4506; 54487879.263714
2212.02; 5583.0428; 54493562.560367
2213.04; 5620.2293; 54499283.711298
2214.06; 5658.7922; 54505044.117599
2215.07; 5691.635; 54510837.956456
2216.09; 5713.8289; 54516654.387691
2217.11; 5722.7894; 54522479.940333
2218.13; 5717.8524; 54528300.467385
2219.15; 5699.6672; 54534102.482677
2220.16; 5669.7588; 54539874.052426
2221.18; 5630.3941; 54545605.55065
2222.20; 5584.641; 54551290.474223
2223.22; 5536.3621; 54556926.25195
2224.24; 5489.9112; 54562514.74464
2225.25; 5449.4735; 54568062.07351
2226.27; 5418.2223; 54573577.589988
2227.29; 5397.6279; 54579072.14231
2228.31; 5387.2586; 54584556.139109
2229.33; 5385.235; 54590038.075966
2230.34; 5389.2183; 54595524.067595
2231.36; 5397.5457; 54601018.536234
2232.38; 5410.0137; 54606525.696779
2233.40; 5427.9078; 54612051.072693
2234.42; 5453.1755; 54617602.169996
2235.43; 5487.0115; 54623187.710918
2236.45; 5528.4222; 54628815.406185
2237.47; 5573.4235; 54634488.910755
2238.49; 5615.348; 54640205.092676
2239.51; 5646.349; 54645952.832333
2240.52; 5659.7243; 54651714.187468
2241.54; 5652.3292; 54657468.014667
2242.56; 5626.2374; 54663195.281576
2243.58; 5588.9969; 54668884.639222
2244.59; 5552.254; 54674536.594198
2245.61; 5529.0419; 54680164.920268
2246.63; 5530.4604; 54685794.690297
2247.65; 5562.6778; 54691457.256277
2248.67; 5625.0942; 54697183.35941
2249.68; 5710.1612; 54702996.057079
2250.70; 5804.8816; 54708905.176034
2251.72; 5893.5601; 54714904.565928
2252.74; 5961.0855; 54720972.693704
2253.76; 5995.9539; 54727076.316051
2254.77; 5992.392; 54733176.312507
2255.79; 5951.2209; 54739234.398577
2256.81; 5879.4299; 54745219.404525
2257.83; 5788.6932; 54751112.044439
2258.85; 5693.2229; 54756907.49965
2259.86; 5607.3902; 54762615.580905
2260.88; 5543.501; 54768258.625678
2261.90; 5510.0188; 54773867.587092
2262.92; 5510.4368; 54779476.973966
2263.94; 5542.9119; 54785119.419122
2264.95; 5600.7024; 54790820.692503
2265.97; 5673.3604; 54796595.928608
2266.99; 5748.5318; 54802447.685919
2268.01; 5814.0993; 54808366.188166
2269.03; 5860.3083; 54814331.729092
2270.04; 5881.4665; 54820318.808219
2271.06; 5876.8549; 54826301.19289
2272.08; 5850.6203; 54832256.871929
2273.10; 5810.6455; 54838171.858351
2274.12; 5766.6322; 54844042.041077
2275.13; 5727.842; 54849872.737116
2276.15; 5701.0395; 54855676.149288
2277.17; 5689.1363; 54861467.444556
2278.19; 5690.8583; 54867260.492743
2279.21; 5701.4779; 54873064.35119
2280.22; 5714.3707; 54878881.333997
2281.24; 5722.9369; 54884707.036797
2282.26; 5722.3448; 54890532.136847
2283.28; 5710.6313; 54896345.313084
2284.30; 5688.8973; 54902136.36504
2285.31; 5660.6079; 54907898.61964
2286.33; 5630.2628; 54913629.984231
2287.35; 5601.8657; 54919332.441828
2288.37; 5577.6589; 54925010.257871
2289.38; 5557.4906; 54930667.543518
2290.40; 5538.9955; 54936306.001954
2291.42; 5518.5352; 54941923.632678
2292.44; 5492.6432; 54947514.906442
2293.46; 5459.5772; 54953072.520391
2294.47; 5420.5401; 54958590.396319
2295.49; 5380.1907; 54964067.198303
2296.51; 5346.2119; 54969509.411337
2297.53; 5327.9223; 54974933.006373
2298.55; 5334.156; 54980362.947019
2299.56; 5370.8557; 54985830.246376
2300.58; 5438.9663; 54991366.879363
2301.60; 5533.2256; 54996999.464242
2302.62; 5642.3035; 55002743.085685
2303.64; 5750.4448; 55008596.790299
2304.65; 5840.3889; 55014542.054156
2305.67; 5896.9673; 55020544.91242
2306.69; 5910.5342; 55026561.581146
2307.71; 5879.3546; 55032546.510431
2308.73; 5810.2923; 55038461.13729
2309.74; 5717.553; 55044281.359488
2310.76; 5619.7424; 55050002.014769
2311.78; 5535.9369; 55055637.359626
2312.80; 5481.7079; 55061217.501714
2313.82; 5466.0301; 55066781.684453
2314.83; 5489.7392; 55072370.002048
2315.85; 5545.7943; 55078015.381365
2316.87; 5621.1589; 55083737.478549
2317.89; 5699.7713; 55089539.59982
2318.91; 5765.9013; 55095409.038503
2319.92; 5807.1882; 55101320.505504
2320.94; 5816.8025; 55107241.759439
2321.96; 5794.3859; 55113140.194256
2322.98; 5745.6719; 55118989.040275
2324.00; 5680.9187; 55124771.970324
2325.01; 5612.4982; 55130485.25135
2326.03; 5552.1525; 55136137.103048
2327.05; 5508.5277; 55141744.546499
2328.07; 5485.5797; 55147328.629936
2329.09; 5482.2754; 55152909.349754
2330.10; 5493.6892; 55158501.688297
2331.12; 5513.1887; 55164113.876506
2332.14; 5535.0263; 55169748.29444
2333.16; 5556.4583; 55175404.529225
2334.18; 5578.6071; 55181083.310551
2335.19; 5605.6735; 55186789.644321
2336.21; 5642.6928; 55192533.662119
2337.23; 5692.6044; 55198328.487702
2338.25; 5753.7437; 55204185.550478
2339.26; 5818.8087; 55210108.846599
2340.28; 5875.8827; 55216090.24165
2341.30; 5911.3654; 55222107.756524
2342.32; 5913.9305; 55228127.882533
2343.34; 5878.1879; 55234111.624174
2344.35; 5806.7544; 55240022.649601
2345.37; 5709.9486; 55245835.130883
2346.39; 5603.1424; 55251538.888033
2347.41; 5502.6182; 55257140.315874
2348.43; 5421.2974; 55262658.962666
2349.44; 5365.7274; 55268121.041662
2350.46; 5335.2418; 55273552.087594
2351.48; 5323.4261; 55278971.105599
2352.50; 5321.2301; 55284387.888236
2353.52; 5320.5502; 55289803.978758
2354.53; 5317.0348; 55295216.490698
2355.55; 5311.2392; 55300623.102974
2356.57; 5307.8963; 55306026.31237
2357.59; 5313.7293; 55311435.459513
2358.61; 5334.6761; 55316865.929628
2359.62; 5373.4927; 55322335.913303
2360.64; 5428.464; 55327861.85537
2361.66; 5493.5126; 55333454.014192
2362.68; 5559.5304; 55339113.376185
2363.70; 5616.4284; 55344830.6579
2364.71; 5655.288; 55350587.497004
2365.73; 5670.0743; 55356359.387993
2366.75; 5658.5859; 55362119.584279
2367.77; 5622.5468; 55367843.094336
2368.79; 5566.9429; 55373510.002025
2369.80; 5498.8231; 55379107.566622
2370.82; 5425.8426; 55384630.840294
2371.84; 5354.8382; 55390081.834552
2372.86; 5290.7009; 55395467.539779
2373.88; 5235.7602; 55400797.317745
2374.89; 5189.7911; 55406080.301106
2375.91; 5150.615; 55411323.404886
2376.93; 5115.1137; 55416530.369866
2377.95; 5080.357; 55421701.954056
2378.97; 5044.517; 55426837.054721
2379.98; 5007.3222; 55431934.292598
2381.00; 4969.9755; 55436993.513149
2382.02; 4934.6581; 55442016.782124
2383.04; 4903.8757; 55447008.715964
2384.05; 4879.9262; 55451976.270274
2385.07; 4864.6569; 55456928.281063
2386.09; 4859.4938; 55461875.036077
2387.11; 4865.5584; 55466827.964618
2388.13; 4883.6234; 55471799.282517
2389.14; 4913.7483; 55476801.266202
2390.16; 4954.64; 55481844.875913
2391.18; 5003.0107; 55486937.724923
2392.20; 5053.3333; 55492081.800184
2393.22; 5098.3432; 55497271.6936
2394.23; 5130.3895; 55502494.208724
2395.25; 5143.3882; 55507729.955989
2396.27; 5134.8167; 55512956.977793
2397.29; 5107.0519; 55518155.736259
2398.31; 5067.4837; 55523314.215997
2399.32; 5027.193; 55528431.681494
2400.34; 4998.4594; 55533519.897452
2401.36; 4991.7703; 55538601.304243
2402.38; 5013.1886; 55543704.513941
2403.40; 5062.8297; 55548858.256114
2404.41; 5134.8393; 55554085.300974
2405.43; 5218.7923; 55559397.806343
2406.45; 5302.0252; 55564795.039243
2407.47; 5372.2133; 55570263.720591
2408.49; 5419.5518; 55575780.590459
2409.50; 5438.1497; 55581316.392224
2410.52; 5426.5595; 55586840.395649
2411.54; 5387.6089; 55592324.749038
2412.56; 5327.7895; 55597748.208812
2413.58; 5256.3871; 55603098.984077
2414.59; 5184.4007; 55608376.480284
2415.61; 5123.1962; 55613591.67292
2416.63; 5082.8718; 55618765.817113
2417.65; 5070.4701; 55623927.3369
2418.67; 5088.3852; 55629107.093464
2419.68; 5133.457; 55634332.731203
2420.70; 5197.2004; 55639623.256929
2421.72; 5267.3559; 55644985.19793
2422.74; 5330.5383; 55650411.455872
2423.76; 5375.3464; 55655883.326585
2424.77; 5395.0629; 55661375.267835
2425.79; 5389.1258; 55666861.165393
2426.81; 5362.9093; 55672320.375614
2427.83; 5325.8848; 55677741.89656
2428.85; 5288.7615; 55683125.627505
2429.86; 5260.5175; 55688480.607281
2430.88; 5246.2322; 55693821.045242
2431.90; 5246.3017; 55699161.554025
2432.92; 5257.118; 55704513.073345
2433.93; 5272.795; 55709880.551167
2434.95; 5287.2269; 55715262.719983
2435.97; 5295.7503; 55720653.565295
2436.99; 5295.9366; 55726044.600265
2438.01; 5287.4317; 55731426.977595
2439.02; 5271.13; 55736792.760458
2440.04; 5248.1706; 55742135.17165
2441.06; 5219.227; 55747448.119514
2442.08; 5184.3597; 55752725.573938
2443.10; 5143.4229; 55757961.356457
2444.11; 5096.7794; 55763149.657903
2445.13; 5045.9673; 55768286.23491
2446.15; 4994.0032; 55773369.914628
2447.17; 4945.1539; 55778403.867932
2448.19; 4904.2041; 55783396.136106
2449.20; 4875.4031; 55788359.08604
2450.22; 4861.3736; 55793307.754619
2451.24; 4862.28; 55798257.345871
2452.26; 4875.5039; 55803220.398466
2453.28; 4895.9814; 55808204.296308
2454.29; 4917.218; 55813209.81208
2455.31; 4932.8337; 55818231.223879
2456.33; 4938.3214; 55823258.222009
2457.35; 4932.5691; 55828279.364473
2458.37; 4918.6555; 55833286.343545
2459.38; 4903.5457; 55838277.941511
2460.40; 4896.5728; 55843262.441331
2461.42; 4906.9689; 55848257.523887
2462.44; 4941.0682; 55853287.318059
2463.46; 5000.0189; 55858377.121497
2464.47; 5078.7945; 55863547.115161
2465.49; 5166.9656; 55868806.863153
2466.51; 5251.1582; 55874152.315564
2467.53; 5318.5658; 55879566.385994
2468.55; 5360.4896; 55885023.133072
2469.56; 5374.8196; 55890494.46745
2470.58; 5366.6666; 55895957.502462
2471.60; 5346.9245; 55901400.440898
2472.62; 5329.1803; 55906825.316471
2473.64; 5325.8849; 55912246.837453
2474.65; 5344.885; 55917687.699707
2475.67; 5387.2544; 55923171.692244
2476.69; 5446.9385; 55928716.440573
2477.71; 5512.1978; 55934327.620044
2478.72; 5568.3896; 55939996.000321
2479.74; 5601.3668; 55945697.950012
2480.76; 5600.7391; 55951399.260774
2481.78; 5562.3678; 55957061.511171
2482.80; 5489.6709; 55962649.759248
2483.81; 5393.5232; 55968140.133136
2484.83; 5290.7229; 55973525.860703
2485.85; 5201.1848; 55978820.442426
2486.87; 5144.2382; 55984057.054936
2487.89; 5134.6416; 55989283.89849
2488.90; 5179.1294; 55994556.028706
2489.92; 5274.356; 55999925.095498
2490.94; 5406.9227; 56005429.10948
2491.96; 5555.7311; 56011084.603995
2492.98; 5696.2897; 56016883.181088
2493.99; 5805.9921; 56022793.430489
2495.01; 5869.0057; 56028767.825048
2496.03; 5879.4293; 56034752.83033
2497.05; 5841.8351; 56040699.566373
2498.07; 5769.0852; 56046572.246149
2499.08; 5678.1434; 56052352.351149
2500.10; 5585.2134; 56058037.857344
2501.12; 5501.6912; 56063638.341586
2502.14; 5432.0848; 56069167.969462
2503.16; 5374.3364; 56074638.812001
2504.17; 5322.1689; 56080056.550298
2505.19; 5268.4408; 56085419.595723
2506.21; 5208.2684; 56090721.388167
2507.23; 5140.8967; 56095954.599197
2508.25; 5069.8639; 56101115.501899
2509.26; 5001.6582; 56106206.974073
2510.28; 4943.5723; 56111239.317341
2511.30; 4901.6335; 56116228.968708
2512.32; 4879.3066; 56121195.892321
2513.34; 4877.2506; 56126160.722945
2514.35; 4893.9421; 56131142.544825
2515.37; 4926.6706; 56136157.68294
2516.39; 4972.3529; 56141219.323586
2517.41; 5027.8177; 56146337.425035
2518.43; 5089.5502; 56151518.36756
2519.44; 5153.1985; 56156764.101256
2520.46; 5213.2972; 56162071.012851
2521.48; 5263.5899; 56167429.120273
2522.50; 5298.0686; 56172822.325437
2523.52; 5312.5155; 56178230.237013
2524.53; 5306.0667; 56183631.583943
2525.55; 5282.2205; 56189008.656452
2526.57; 5248.8428; 56194351.751875
2527.59; 5217.0083; 56199662.441169
2528.60; 5198.8796; 56204954.676304
2529.62; 5205.1278; 56210253.271789
2530.64; 5242.5477; 56215589.95913
2531.66; 5312.478; 56220997.832523
2532.68; 5410.4158; 56226505.402333
2533.69; 5526.9022; 56232131.550239
2534.71; 5649.4378; 56237882.434182
2535.73; 5764.9546; 56243750.909241
2536.75; 5862.2753; 56249718.452565
2537.77; 5934.0462; 56255759.05554
2538.78; 5977.7932; 56261844.191018
2539.80; 5995.9762; 56267947.83608
2540.82; 5995.1371; 56274050.626913
2541.84; 5984.3991; 56280142.486937
2542.86; 5973.6659; 56286223.421015
2543.87; 5971.8677; 56292302.524673
2544.89; 5985.5469; 56298395.553177
2545.91; 6017.9762; 56304521.593249
2546.93; 6068.8966; 56310699.468134
2547.95; 6134.8599; 56316944.490792
2548.96; 6210.0723; 56323266.076448
2549.98; 6287.5738; 56329666.555213
2551.00; 6360.5421; 56336141.312652
2552.02; 6423.5019; 56342680.160451
2553.04; 6473.2365; 56349269.635864
2554.05; 6509.2619; 56355895.783588
2555.07; 6533.8055; 56362546.915596
2556.09; 6551.3269; 56369215.883684
2557.11; 6567.7026; 56375901.521531
2558.13; 6589.2372; 56382609.080617
2559.14; 6621.6647; 56389349.649548
2560.16; 6669.2605; 56396138.668973
2561.18; 6734.1264; 56402993.71906
2562.20; 6815.6721; 56409931.779112
2563.22; 6910.3112; 56416966.177733
2564.23; 7011.4246; 56424103.505404
2565.25; 7109.6891; 56431340.862108
2566.27; 7193.8888; 56438663.930508
2567.29; 7252.2718; 56446046.430293
2568.31; 7274.3832; 56453451.438454
2569.32; 7253.1164; 56460834.797985
2570.34; 7186.5495; 56468150.395244
2571.36; 7079.0464; 56475356.559026
2572.38; 6941.1831; 56482422.383889
2573.39; 6788.3024; 56489332.582854
2574.41; 6637.8746; 56496089.65277
2575.43; 6506.2147; 56502712.698613
2576.45; 6405.3642; 56509233.082939
2577.47; 6340.9607; 56515687.907302
2578.48; 6311.6781; 56522112.923202
2579.50; 6310.3657; 56528536.603194
2580.52; 6326.5084; 56534976.715708
2581.54; 6349.228; 56541439.955827
2582.56; 6369.9121; 56547924.251443
2583.57; 6383.7255; 56554422.608518
2584.59; 6389.691; 56560927.038265
2585.61; 6389.5472; 56567431.321634
2586.63; 6386.0164; 56573932.010781
2587.65; 6381.2793; 56580427.877794
2588.66; 6376.2936; 56586918.66958
2589.68; 6371.1766; 56593404.252428
2590.70; 6366.3683; 56599884.940624
2591.72; 6363.906; 56606363.122321
2592.74; 6368.04; 56612845.51229
2593.75; 6384.6579; 56619344.818519
2594.77; 6419.4752; 56625879.56721
2595.79; 6475.507; 56632471.353858
2596.81; 6550.7298; 56639139.714126
2597.83; 6636.9089; 56645895.800994
2598.84; 6720.255; 56652736.730615
2599.86; 6783.9854; 56659642.534995
2600.88; 6812.203; 56666577.06364
2601.90; 6794.0188; 56673493.081579
2602.92; 6726.7021; 56680340.574051
2603.93; 6616.9055; 56687076.29835
2604.95; 6479.5844; 56693672.235652
2605.97; 6334.9092; 56700120.89982
2606.99; 6204.0263; 56706436.330907
2608.01; 6104.7822; 56712650.735714
2609.02; 6048.429; 56718807.775425
2610.04; 6037.9552; 56724954.153224
2611.06; 6068.1806; 56731131.299272
2612.08; 6127.32; 56737368.646616
2613.10; 6199.4603; 56743679.429657
2614.11; 6267.369; 56750059.340851
2615.13; 6315.1736; 56756487.915028
2616.15; 6330.6326; 56762932.225815
2617.17; 6306.8478; 56769352.324772
2618.19; 6243.3021; 56775707.736926
2619.20; 6146.0816; 56781964.182786
2620.22; 6027.1322; 56788099.543331
2621.24; 5902.483; 56794108.016289
2622.26; 5789.573; 56800001.551808
2623.27; 5704.0972; 56805808.076587
2624.29; 5657.0209; 56811566.679743
2625.31; 5652.499; 56817320.679794
2626.33; 5687.2779; 56823110.083313
2627.35; 5751.7932; 56828965.160572
2628.36; 5832.6941; 56834902.591485
2629.38; 5916.1065; 56840924.932644
2630.40; 5990.7293; 56847023.236587
2631.42; 6049.9382; 56853181.812656
2632.44; 6092.409; 56859383.622113
2633.45; 6121.249; 56865614.789438
2634.47; 6142.0722; 56871867.153933
2635.49; 6160.716; 56878138.496985
2636.51; 6181.3102; 56884430.804049
2637.53; 6205.1986; 56890747.428419
2638.54; 6230.8783; 56897090.193654
2639.56; 6254.8034; 56903457.313627
2640.58; 6272.6863; 56909842.637578
2641.60; 6280.8735; 56916236.295817
2642.62; 6277.4389; 56922626.457745
2643.63; 6262.7664; 56929001.683683
2644.65; 6239.5362; 56935353.262309
2645.67; 6212.1416; 56941676.954414
2646.69; 6185.6634; 56947973.692836
2647.71; 6164.6246; 56954249.014631
2648.72; 6151.8363; 56960511.318525
2649.74; 6147.6956; 56966769.407401
2650.76; 6150.2486; 56973030.09505
2651.78; 6156.1516; 56979296.791712
2652.80; 6162.3643; 56985569.812632
2653.81; 6168.0743; 56991848.64608
2654.83; 6176.1328; 56998135.682727
2655.85; 6193.2997; 57004440.194519
2656.87; 6228.9176; 57010780.963848
2657.89; 6292.1872; 57017186.138946
2658.90; 6388.8091; 57023689.67088
2659.92; 6518.1448; 57030324.860965
2660.94; 6672.0315; 57037116.701141
2661.96; 6835.903; 57044075.355371
2662.98; 6992.0703; 57051192.981179
2663.99; 7124.1909; 57058445.100049
2665.01; 7221.4369; 57065796.211202
2666.03; 7280.9107; 57073207.86407
2667.05; 7307.4613; 57080646.544363
2668.06; 7311.0231; 57088088.850366
2669.08; 7302.5363; 57095522.517173
2670.10; 7290.0454; 57102943.468846
2671.12; 7276.4593; 57110350.590409
2672.14; 7259.7447; 57117740.697198
2673.15; 7235.3009; 57125105.921284
2674.17; 7199.3568; 57132434.555826
2675.19; 7151.8326; 57139714.812765
2676.21; 7097.3847; 57146939.644119
2677.23; 7044.1782; 57154110.313558
2678.24; 7000.9445; 57161236.97297
2679.26; 6973.6363; 57168335.833826
2680.28; 6963.1546; 57175424.024774
2681.30; 6965.1298; 57182514.226347
2682.32; 6971.8152; 57189611.233357
2683.33; 6975.2174; 57196711.703644
2684.35; 6970.0612; 57203806.925127
2685.37; 6955.3051; 57210887.125582
2686.39; 6933.6228; 57217945.25435
2687.41; 6909.2219; 57224978.544077
2688.42; 6885.1464; 57231987.325996
2689.44; 6861.4381; 57238971.97386
2690.46; 6835.1184; 57245929.829398
2691.48; 6802.0762; 57252854.049464
2692.50; 6760.0157; 57259735.453696
2693.51; 6711.0574; 57266567.020508
2694.53; 6662.6642; 57273349.325147
2695.55; 6626.2469; 57280094.558538
2696.57; 6613.806; 57286827.127652
2697.59; 6633.8372; 57293580.087664
2698.60; 6688.0895; 57300388.274144
2699.62; 6770.4608; 57307280.311046
2700.64; 6868.4788; 57314272.12603
2701.66; 6966.808; 57321364.035902
2702.68; 7051.4736; 57328542.131761
2703.69; 7113.298; 57335783.162168
2704.71; 7149.4579; 57343061.001804
2705.73; 7162.8826; 57350352.5072
2706.75; 7160.0534; 57357641.132639
2707.77; 7148.2872; 57364917.780527
2708.78; 7133.5966; 57372179.474068
2709.80; 7119.7769; 57379427.099746
2710.82; 7108.7099; 57386663.459641
2711.84; 7101.3331; 57393892.31031
2712.86; 7098.5234; 57401118.300858
2713.87; 7101.3502; 57408347.168915
2714.89; 7110.6229; 57415585.476176
2715.91; 7126.1293; 57422839.568268
2716.93; 7146.1892; 57430114.08048
2717.94; 7168.0223; 57437410.817843
2718.96; 7189.0087; 57444728.918477
2719.98; 7208.4195; 57452066.778426
2721.00; 7228.8567; 57459425.442647
2722.02; 7256.6428; 57466812.391875
2723.03; 7300.7457; 57474244.235958
2724.05; 7370.3879; 57481746.972796
2725.07; 7472.0172; 57489353.163839
2726.09; 7606.6125; 57497096.367134
2727.11; 7768.2393; 57505004.099521
2728.12; 7944.3922; 57513091.148
2729.14; 8118.1242; 57521355.048156
2730.16; 8271.4484; 57529775.025734
2731.18; 8389.1785; 57538314.847422
2732.20; 8462.3043; 57546929.108007
2733.21; 8490.1587; 57555571.723229
2734.23; 8480.9272; 57564204.94116
2735.25; 8450.3901; 57572807.07361
2736.27; 8419.1081; 57581377.362325
2737.29; 8408.5324; 57589936.88542
2738.30; 8436.7379; 57598525.12058
2739.32; 8514.6152; 57607192.631464
2740.34; 8643.362; 57615991.201016
2741.36; 8813.9387; 57624963.410289
2742.38; 9008.7624; 57634133.941648
2743.39; 9205.3714; 57643504.612506
2744.41; 9381.2342; 57653054.304089
2745.43; 9518.492; 57662743.718205
2746.45; 9607.3882; 57672523.624831
2747.47; 9647.5085; 57682344.372218
2748.48; 9646.65; 57692164.245634
2749.50; 9617.9193; 57701954.872465
2750.52; 9576.2416; 57711703.073203
2751.54; 9535.5977; 57721409.900207
2752.56; 9507.9286; 57731088.56124
2753.57; 9503.8775; 57740763.098467
2754.59; 9534.685; 57750468.996392
2755.61; 9613.962; 57760255.594883
2756.63; 9758.006; 57770188.823883
2757.65; 9983.8495; 57780351.951807
2758.66; 10305.163; 57790842.163077
2759.68; 10727.116; 57801761.90386
2760.70; 11241.938; 57813205.711864
2761.72; 11826.964; 57825245.051163
2762.73; 12446.289; 57837914.836083
2763.75; 13056.104; 57851205.386175
2764.77; 13612.599; 57865062.425029
2765.79; 14080.481; 57879395.747082
2766.81; 14439.901; 57894094.943601
2767.82; 14690.052; 57909048.782168
2768.84; 14848.57; 57924163.985704
2769.86; 14947.057; 57939379.444443
2770.88; 15023.921; 57954673.147411
2771.90; 15116.318; 57970060.906341
2772.91; 15252.939; 57985587.740443
2773.93; 15449; 58001314.155621
2774.95; 15704.098; 58017300.249501
2775.97; 16002.983; 58033590.595489
2776.99; 16318.738; 58050202.367062
2778.00; 16617.621; 58067118.388304
2779.02; 16864.714; 58084285.939296
2780.04; 17029.586; 58101621.323243
2781.06; 17091.225; 58119019.452966
2782.08; 17041.573; 58136367.039288
2783.09; 16887.107; 58153557.385295
2784.11; 16648.055; 58170504.387321
2785.13; 16355.169; 58187153.243749
2786.15; 16044.356; 58203485.706015
2787.17; 15750.008; 58219518.534785
2788.18; 15498.248; 58235295.082576
2789.20; 15301.546; 58250871.396272
2790.22; 15156.033; 58266299.583815
2791.24; 15042.35; 58281612.046666
2792.26; 14930.101; 58296810.245481
2793.27; 14785.085; 58311860.823952
2794.29; 14577.699; 58326700.292848
2795.31; 14290.534; 58341247.439296
2796.33; 13923.24; 58355420.696774
2797.35; 13493.426; 58369156.422224
2798.36; 13033.302; 58382423.761047
2799.38; 12582.932; 58395232.64314
2800.40; 12181.831; 58407633.221316
2801.42; 11861.036; 58419707.243873
2802.44; 11637.608; 58431553.826841
2803.45; 11512.748; 58443273.307704
2804.47; 11473.673; 58454953.011619
2805.49; 11498.383; 58466657.869276
2806.51; 11561.751; 58478427.232674
2807.52; 11641.198; 58490277.469651
2808.54; 11720.577; 58502208.511141
2809.56; 11791.586; 58514211.837353
2810.58; 11852.834; 58526277.510475
2811.60; 11907.29; 58538398.617583
2812.61; 11959.171; 58550572.538099
2813.63; 12011.212; 58562799.43406
2814.65; 12062.975; 58575079.02213
2815.67; 12110.446; 58587406.933285
2816.69; 12146.806; 58599771.857255
2817.70; 12164.051; 58612154.336753
2818.72; 12155.045; 58624527.647644
2819.74; 12115.545; 58636860.749223
2820.76; 12045.788; 58649122.841841
2821.78; 11951.208; 58661288.655666
2822.79; 11841.986; 58673343.286903
2823.81; 11731.373; 58685285.317974
2824.83; 11633.016; 58697127.225835
2825.85; 11557.962; 58708892.732123
2826.87; 11512.204; 58720611.659193
2827.88; 11495.661; 58732313.746175
2828.90; 11503.086; 58744023.391325
2829.92; 11526.761; 58755757.136214
2830.94; 11560.113; 58767524.832793
2831.96; 11600.928; 58779334.076692
2832.97; 11652.815; 58791196.139522
2833.99; 11724.184; 58803130.853145
2835.01; 11824.897; 58815168.087665
2836.03; 11961.773; 58827344.655915
2837.05; 12134.722; 58839697.279046
2838.06; 12335.185; 58852253.964618
2839.08; 12547.766; 58865027.048719
2840.10; 12754.698; 58878010.7808
2841.12; 12941.554; 58891184.72445
2842.14; 13101.977; 58904521.97177
2843.15; 13239.403; 58917999.113142
2844.17; 13364.833; 58931603.936017
2845.19; 13491.234; 58945337.429952
2846.21; 13626.605; 58959208.726059
2847.23; 13768.416; 58973224.379426
2848.24; 13901.848; 58987375.860702
2849.26; 14002.966; 59001630.275428
2850.28; 14046.155; 59015928.654603
2851.30; 14013.519; 59030193.812408
2852.32; 13903.067; 59044346.535172
2853.33; 13732.749; 59058325.881394
2854.35; 13538.697; 59072107.691003
2855.37; 13367.88; 59085715.615854
2856.39; 13267.166; 59099221.018313
2857.40; 13271.909; 59112731.248836
2858.42; 13397.246; 59126369.067184
2859.44; 13634.41; 59140248.308135
2860.46; 13952.816; 59154451.672881
2861.48; 14307.076; 59169015.659301
2862.49; 14646.877; 59183925.54779
2863.51; 14927.169; 59199120.762031
2864.53; 15116.379; 59214508.583426
2865.55; 15201.115; 59229982.662166
2866.57; 15186.886; 59245442.256288
2867.58; 15095.23; 59260808.549465
2868.60; 14958.305; 59276035.458971
2869.62; 14812.262; 59291113.702829
2870.64; 14690.754; 59306068.256376
2871.66; 14619.709; 59320950.489399
2872.67; 14614.19; 59335827.104494
2873.69; 14677.733; 59350768.403552
2874.71; 14804.09; 59365838.328349
2875.73; 14980.805; 59381088.141648
2876.75; 15193.651; 59396554.622249
2877.76; 15430.739; 59412262.449179
2878.78; 15685.246; 59428229.352704
2879.80; 15956.06; 59444471.933531
2880.82; 16246.35; 59461010.016523
2881.84; 16560.641; 59477868.034704
2882.85; 16901.5; 59495073.031999
2883.87; 17266.971; 59512650.063656
2884.89; 17649.667; 59530616.662958
2885.91; 18037.782; 59548978.346676
2886.93; 18417.709; 59567726.779193
2887.94; 18777.402; 59586841.363648
2888.96; 19109.477; 59606293.986185
2889.98; 19413.154; 59626055.739491
2891.00; 19694.541; 59646103.932843
2892.02; 19965.197; 59666427.642205
2893.03; 20239.331; 59687030.407966
2894.05; 20530.249; 59707929.315584
2895.07; 20846.796; 59729150.454713
2896.09; 21190.562; 59750721.532213
2897.11; 21554.532; 59772663.11601
2898.12; 21923.695; 59794980.491565
2899.14; 22277.736; 59817658.265083
2900.16; 22595.485; 59840659.493702
2901.18; 22860.209; 59863930.200384
2902.19; 23064.404; 59887408.767876
2903.21; 23212.662; 59911038.255944
2904.23; 23321.616; 59934778.65508
2905.25; 23416.801; 59958615.947611
2906.27; 23527.372; 59982565.796971
2907.28; 23680.477; 60006671.500696
2908.30; 23897.253; 60030997.873082
2909.32; 24191.832; 60055624.114109
2910.34; 24573.398; 60080638.773175
2911.36; 25049.856; 60106138.445217
2912.37; 25630.661; 60132229.351766
2913.39; 26326.449; 60159028.541069
2914.41; 27144.359; 60186660.327705
2915.43; 28080.064; 60215244.620935
2916.45; 29109.6; 60244876.93767
2917.46; 30185.17; 60275604.13775
2918.48; 31238.454; 60307403.535802
2919.50; 32192.661; 60340174.275878
2920.52; 32981.159; 60373747.672421
2921.54; 33567.436; 60407917.873481
2922.55; 33959.604; 60442487.284447
2923.57; 34213.497; 60477315.147729
2924.59; 34421.648; 60512354.899597
2925.61; 34689.981; 60547667.803794
2926.63; 35108.402; 60583406.642529
2927.64; 35723.902; 60619772.033452
2928.66; 36524.435; 60656952.331962
2929.68; 37438.602; 60695063.213545
2930.70; 38351.28; 60734103.161234
2931.72; 39130.398; 60773936.218307
2932.73; 39656.921; 60814305.252947
2933.75; 39849.598; 60854870.424169
2934.77; 39678.414; 60895261.337225
2935.79; 39164.699; 60935129.310828
2936.81; 38370.112; 60974188.428697
2937.82; 37379.616; 61012239.264654
2938.84; 36284.308; 61049175.123983
2939.86; 35168.519; 61084975.158237
2940.88; 34102.952; 61119690.49189
2941.90; 33142.894; 61153428.528217
2942.91; 32328.919; 61186337.973063
2943.93; 31687.453; 61218594.433082
2944.95; 31229.847; 61250385.069842
2945.97; 30950.424; 61281891.265664
2946.99; 30825.351; 61313270.142491
2948.00; 30814.462; 61344637.934848
2949.02; 30867.178; 61376059.390536
2950.04; 30931.936; 61407546.766644
2951.06; 30966.806; 61439069.638812
2952.07; 30948.119; 61470573.488201
2953.09; 30874.257; 61502002.149393
2954.11; 30763.301; 61533317.862207
2955.13; 30645.296; 61564513.451079
2956.15; 30551.757; 61595613.820996
2957.16; 30505.949; 61626667.56024
2958.18; 30517.14; 61657732.692118
2959.20; 30580.561; 61688862.38331
2960.22; 30682.764; 61720096.113524
2961.24; 30810.229; 61751459.596867
2962.25; 30957.926; 61782973.42996
2963.27; 31134.673; 61814667.183456
2964.29; 31363.188; 61846593.555565
2965.31; 31674.624; 61878836.956409
2966.33; 32099.2; 61911512.556652
2967.34; 32655.903; 61944754.856804
2968.36; 33344.608; 61978698.229312
2969.38; 34143.223; 62013454.557377
2970.40; 35010.938; 62049094.181416
2971.42; 35896.74; 62085635.513598
2972.43; 36750.726; 62123046.1665
2973.45; 37534.91; 62161255.084771
2974.47; 38230.494; 62200172.077569
2975.49; 38839.833; 62239709.351901
2976.51; 39383.176; 62279799.725812
2977.52; 39892.005; 62320408.065961
2978.54; 40401.832; 62361535.387258
2979.56; 40947.133; 62403217.801666
2980.58; 41559.88; 62445523.96648
2981.60; 42271.19; 62488554.2143
2982.61; 43113.906; 62532442.310452
2983.63; 44123.131; 62577357.753431
2984.65; 45332.376; 62623504.155911
2985.67; 46764.944; 62671108.85048
2986.69; 48422.696; 62720401.065232
2987.70; 50276.45; 62771580.321871
2988.72; 52262.791; 62824781.588111
2989.74; 54290.62; 62880047.09655
2990.76; 56257.528; 62937314.832604
2991.78; 58072.166; 62996429.791791
2992.79; 59675.682; 63057177.060513
2993.81; 61054.455; 63119327.86129
2994.83; 62238.432; 63182683.899806
2995.85; 63283.947; 63247104.2268
2996.86; 64245.596; 63312503.471247
2997.88; 65146.417; 63378819.712618
2998.90; 65957.402; 63445961.502036
2999.92; 66595.316; 63513752.660456
3000.94; 66942.169; 63581896.899879
3001.95; 66882.307; 63649980.202217
3002.97; 66346.409; 63717517.984018
3003.99; 65348.159; 63784039.590415
3005.01; 64000.462; 63849189.298568
3006.03; 62503.698; 63912815.366457
3007.04; 61106.961; 63975019.61587
3008.06; 60051.739; 64036149.694651
3009.08; 59513.384; 64096731.7514
3010.10; 59556.817; 64157358.021053
3011.12; 60119.031; 64218556.600046
3012.13; 61023.23; 64280675.614544
3013.15; 62020.403; 64343809.70804
3014.17; 62846.594; 64407784.828583
3015.19; 63280.344; 64472201.488578
3016.21; 63185.668; 64536521.771619
3017.22; 62530.935; 64600175.564694
3018.24; 61381.394; 64662659.174777
3019.26; 59870.375; 64723604.633294
3020.28; 58159.429; 64782808.422748
3021.30; 56399.416; 64840220.594624
3022.31; 54702.77; 64895905.65445
3023.33; 53132.699; 64949992.448927
3024.35; 51709.474; 65002630.461723
3025.37; 50428.98; 65053964.987149
3026.39; 49285.549; 65104135.549658
3027.40; 48290.615; 65153293.312199
3028.42; 47480.714; 65201626.630581
3029.44; 46912.152; 65249381.177393
3030.46; 46644.057; 65296862.814494
3031.48; 46715.314; 65344416.988774
3032.49; 47122.971; 65392386.140135
3033.51; 47809.482; 65441054.129692
3034.53; 48663.776; 65490591.753525
3035.55; 49537.142; 65541018.426933
3036.57; 50270.568; 65592191.69617
3037.58; 50726.682; 65643829.269714
3038.60; 50817.953; 65695559.753245
3039.62; 50523.712; 65746990.711366
3040.64; 49891.674; 65797778.282406
3041.66; 49023.985; 65847682.583901
3042.67; 48051.996; 65896597.442693
3043.69; 47106.805; 65944550.137537
3044.71; 46293.203; 65991674.620913
3045.73; 45673.045; 66038167.809899
3046.74; 45260.862; 66084241.413992
3047.76; 45030.931; 66130080.958331
3048.78; 44932.097; 66175819.893731
3049.80; 44905.232; 66221531.482268
3050.82; 44898.499; 66267236.216751
3051.83; 44877.118; 66312919.186457
3052.85; 44826.484; 66358550.612499
3053.87; 44749.388; 66404103.558774
3054.89; 44659.387; 66449564.887557
3055.91; 44572.763; 66494938.036696
3056.92; 44501.326; 66540238.46605
3057.94; 44447.649; 66585484.255139
3058.96; 44403.576; 66630685.179171
3059.98; 44352.026; 66675833.627468
3061.00; 44271.39; 66720899.992508
3062.01; 44141.126; 66765833.753948
3063.03; 43946.766; 66810569.665798
3064.05; 43682.622; 66855036.689644
3065.07; 43351.073; 66899166.211336
3066.09; 42958.565; 66942896.177162
3067.10; 42509.767; 66986169.28588
3068.12; 42002.4; 67028925.916542
3069.14; 41425.371; 67071095.156988
3070.16; 40761.855; 67112588.966929
3071.18; 39997.045; 67153304.23243
3072.19; 39128.163; 67193135.013539
3073.21; 38172.869; 67231993.347068
3074.23; 37172.152; 67269832.993615
3075.25; 36185.412; 67306668.18199
3076.27; 35278.221; 67342579.889136
3077.28; 34506.12; 67377705.630491
3078.30; 33899.685; 67412214.047254
3079.32; 33456.024; 67446270.83635
3080.34; 33139.827; 67480005.750096
3081.36; 32893.786; 67513490.204864
3082.37; 32654.899; 67546731.483257
3083.39; 32371.149; 67579683.916182
3084.41; 32013.139; 67612271.910181
3085.43; 31577.357; 67644416.297079
3086.45; 31080.974; 67676055.387437
3087.46; 30551.136; 67707155.125256
3088.48; 30013.399; 67737707.470024
3089.50; 29483.682; 67767720.586024
3090.52; 28966.143; 67797206.869343
3091.53; 28456.659; 67826174.520301
3092.55; 27949.314; 67854625.716204
3093.57; 27442.344; 67882560.837816
3094.59; 26940.705; 67909985.313016
3095.61; 26454.319; 67936914.667889
3096.62; 25993.159; 67963374.58231
3097.64; 25561.821; 67989395.413243
3098.66; 25156.318; 68015003.459359
3099.68; 24764.751; 68040212.907082
3100.70; 24371.677; 68065022.222879
3101.71; 23964.348; 68089416.894922
3102.73; 23538.192; 68113377.758871
3103.75; 23099.289; 68136891.838006
3104.77; 22662.835; 68159961.626162
3105.79; 22248.238; 68182609.372208
3106.80; 21872.688; 68204874.824962
3107.82; 21545.517; 68226807.231694
3108.84; 21265.149; 68248454.23601
3109.86; 21019.398; 68269851.075685
3110.88; 20788.652; 68291013.026695
3111.89; 20550.685; 68311932.737187
3112.91; 20285.552; 68332582.553327
3113.93; 19979.405; 68352920.725876
3114.95; 19626.65; 68372899.809152
3115.97; 19230.476; 68392475.603388
3116.98; 18802.16; 68411615.390655
3118.00; 18359.585; 68430304.655865
3119.02; 17925.219; 68448551.755021
3120.04; 17523.641; 68466390.065592
3121.06; 17178.619; 68483877.158711
3122.07; 16909.847; 68501090.6534
3123.09; 16729.703; 68518120.768892
3124.11; 16640.586; 68535060.167383
3125.13; 16633.477; 68551992.329431
3126.15; 16688.218; 68568980.215031
3127.16; 16775.694; 68586057.147247
3128.18; 16861.691; 68603221.621098
3129.20; 16911.818; 68620437.122054
3130.22; 16896.642; 68637637.174449
3131.24; 16796.143; 68654734.923373
3132.25; 16602.72; 68671635.775389
3133.27; 16322.258; 68688251.12925
3134.29; 15973.137; 68704511.093841
3135.31; 15583.396; 68720374.318676
3136.33; 15186.566; 68735833.587864
3137.34; 14816.886; 68750916.53819
3138.36; 14504.623; 68765681.618973
3139.38; 14272.183; 68780210.085178
3140.40; 14131.469; 68794595.310344
3141.41; 14082.786; 68808930.979062
3142.43; 14115.331; 68823299.776906
3143.45; 14209.147; 68837764.074963
3144.47; 14338.296; 68852359.841141
3145.49; 14474.85; 68867094.61351
3146.50; 14593.174; 68881949.835063
3147.52; 14673.848; 68896887.178805
3148.54; 14706.484; 68911857.745326
3149.56; 14690.787; 68926812.332362
3150.58; 14635.426; 68941710.564875
3151.59; 14554.822; 68956526.745341
3152.61; 14464.471; 68971250.952284
3153.63; 14376.013; 68985885.11288
3154.65; 14293.443; 69000435.221525
3155.67; 14211.715; 69014902.133969
3156.68; 14118.329; 69029273.983907
3157.70; 13997.616; 69043522.95248
3158.72; 13836.464; 69057607.876178
3159.74; 13629.723; 69071482.346369
3160.76; 13383.448; 69085106.119369
3161.77; 13114.831; 69098456.450905
3162.79; 12848.665; 69111535.837625
3163.81; 12611.375; 69124373.673479
3164.83; 12424.409; 69137021.185446
3165.85; 12299.04; 69149541.077443
3166.86; 12234.121; 69161994.884325
3167.88; 12217.331; 69174431.599766
3168.90; 12229.337; 69186880.536786
3169.92; 12249.368; 69199349.864545
3170.94; 12260.379; 69211830.40134
3171.95; 12252.27; 69224302.683487
3172.97; 12222.417; 69236744.57659
3173.99; 12173.756; 69249136.934515
3175.01; 12111.447; 69261465.865158
3176.03; 12039.527; 69273721.58372
3177.04; 11958.763; 69285895.088532
3178.06; 11866.386; 69297974.557498
3179.08; 11757.575; 69309943.261987
3180.10; 11627.981; 69321780.044806
3181.12; 11476.222; 69333462.343666
3182.13; 11305.42; 69344970.773363
3183.15; 11123.235; 69356293.746197
3184.17; 10940.46; 69367430.661998
3185.19; 10768.732; 69378392.766755
3186.20; 10618.18; 69389201.615568
3187.22; 10495.773; 69399885.859335
3188.24; 10404.828; 69410477.525302
3189.26; 10345.636; 69421008.936788
3190.28; 10316.761; 69431510.954766
3191.29; 10316.319; 69442012.522266
3192.31; 10342.595; 69452540.837774
3193.33; 10393.672; 69463121.146878
3194.35; 10466.192; 69473775.278415
3195.37; 10553.848; 69484518.640656
3196.38; 10646.414; 69495356.230632
3197.40; 10730.063; 69506278.971278
3198.42; 10789.329; 69517262.042516
3199.44; 10810.434; 69528266.597489
3200.46; 10785.089; 69539245.352786
3201.47; 10713.521; 69550151.254869
3202.49; 10605.485; 69560947.180716
3203.51; 10478.559; 69571613.90153
3204.53; 10353.846; 69582153.669505
3205.55; 10250.122; 69592587.85187
3206.56; 10178.155; 69602948.774463
3207.58; 10137.014; 69613267.817409
3208.60; 10113.763; 69623563.191528
3209.62; 10086.877; 69633831.196863
3210.64; 10032.569; 69644043.919146
3211.65; 9932.1908; 69654154.460819
3212.67; 9778.4451; 69664108.495932
3213.69; 9578.4328; 69673858.927146
3214.71; 9352.5075; 69683379.376198
3215.73; 9129.2062; 69692672.514206
3216.74; 8937.7456; 69701770.753526
3217.76; 8800.3063; 69710729.085553
3218.78; 8726.3433; 69719612.126513
3219.80; 8710.4701; 69728479.009251
3220.82; 8734.3244; 69737370.174589
3221.83; 8771.6278; 69746299.313228
3222.85; 8794.788; 69755252.027908
3223.87; 8781.1111; 69764190.820097
3224.89; 8717.034; 69773064.384527
3225.91; 8599.5625; 69781818.368018
3226.92; 8435.0205; 69790404.854862
3227.94; 8235.9534; 69798788.700018
3228.96; 8017.3821; 69806950.049049
3229.98; 7793.521; 69814883.517169
3231.00; 7575.6644; 69822595.216593
3232.01; 7371.4107; 69830098.99461
3233.03; 7184.9448; 69837412.958346
3234.05; 7017.8615; 69844556.838493
3235.07; 6870.0317; 69851550.234259
3236.08; 6740.2; 69858411.46702
3237.10; 6626.256; 69865156.709718
3238.12; 6525.3128; 69871799.196613
3239.14; 6433.8033; 69878348.530752
3240.16; 6347.7538; 69884810.270245
3241.17; 6263.2749; 69891186.013868
3242.19; 6177.1781; 69897474.114567
3243.21; 6087.5473; 69903670.975005
3244.23; 5994.086; 69909772.695922
3245.25; 5898.1145; 69915776.721939
3246.26; 5802.1876; 69921683.098571
3247.28; 5709.4028; 69927495.024294
3248.30; 5622.5452; 69933218.532714
3249.32; 5543.2657; 69938861.338044
3250.34; 5471.4928; 69944431.08161
3251.35; 5405.2427; 69949933.38545
3252.37; 5340.9188; 69955370.210351
3253.39; 5274.0806; 69960738.996797
3254.41; 5200.5417; 69966032.923864
3255.43; 5117.5493; 69971242.368268
3256.44; 5024.737; 69976357.33374
3257.46; 4924.5653; 69981370.328731
3258.48; 4822.0683; 69986278.986151
3259.50; 4723.8996; 69991087.71208
3260.52; 4636.8699; 69995807.845524
3261.53; 4566.3304; 70000456.172827
3262.55; 4514.8323; 70005052.077303
3263.57; 4481.4439; 70009613.993801
3264.59; 4461.9441; 70014156.060353
3265.61; 4449.8714; 70018685.837372
3266.62; 4438.1576; 70023203.69029
3267.64; 4420.8955; 70027703.971168
3268.66; 4394.7297; 70032177.616403
3269.68; 4359.4567; 70036615.355244
3270.70; 4317.6459; 70041010.532448
3271.71; 4273.3924; 70045360.661476
3272.73; 4230.5955; 70049667.225106
3273.75; 4191.3298; 70053933.817971
3274.77; 4154.876; 70058163.302439
3275.79; 4117.7871; 70062355.032045
3276.80; 4075.0324; 70066503.239141
3277.82; 4021.8832; 70070597.342716
3278.84; 3955.9164; 70074624.294914
3279.86; 3878.4116; 70078572.350566
3280.87; 3794.5772; 70082435.066445
3281.89; 3712.407; 70086214.136531
3282.91; 3640.4423; 70089919.949745
3283.93; 3585.1276; 70093569.454905
3284.95; 3548.6368; 70097181.814064
3285.96; 3527.9476; 70100773.112439
3286.98; 3515.543; 70104351.783475
3288.00; 3501.5822; 70107916.243006
3289.02; 3476.8666; 70111455.54313
3290.04; 3435.6436; 70114952.880069
3291.05; 3377.3322; 70118390.858548
3292.07; 3306.6198; 70121756.854785
3293.09; 3231.9352; 70125046.825403
3294.11; 3162.8499; 70128266.470096
3295.13; 3107.2941; 70131429.56138
3296.14; 3069.4971; 70134554.176958
3297.16; 3049.2544; 70137658.186402
3298.18; 3042.6348; 70140755.457353
3299.20; 3043.7395; 70143853.852812
3300.22; 3046.8059; 70146955.36971
3301.23; 3047.9038; 70150058.004269
3302.25; 3045.7023; 70153158.397741
3303.27; 3041.1745; 70156254.182161
3304.29; 3036.5042; 70159345.212409
3305.31; 3033.7052; 70162433.393355
3306.32; 3033.5013; 70165521.366761
3307.34; 3034.8422; 70168610.705136
3308.36; 3035.1467; 70171700.35353
3309.38; 3031.0912; 70174785.873566
3310.40; 3019.5924; 70177859.688366
3311.41; 2998.6254; 70180912.159612
3312.43; 2967.6355; 70183933.084514
3313.45; 2927.4935; 70186913.146537
3314.47; 2880.1072; 70189844.971402
3315.49; 2827.8982; 70192723.649694
3316.50; 2773.3405; 70195546.790662
3317.52; 2718.6836; 70198314.293249
3318.54; 2665.8696; 70201028.033464
3319.56; 2616.5755; 70203691.594405
3320.58; 2572.275; 70206310.059313
3321.59; 2534.2374; 70208889.803608
3322.61; 2503.4358; 70211438.193219
3323.63; 2480.394; 70213963.127246
3324.65; 2465.0394; 70216472.430976
3325.67; 2456.6322; 70218973.176535
3326.68; 2453.8136; 70221471.052858
3327.70; 2454.7759; 70223969.908764
3328.72; 2457.5166; 70226471.554663
3329.74; 2460.1152; 70228975.845829
3330.75; 2460.9675; 70231481.004586
3331.77; 2458.931; 70233984.090189
3332.79; 2453.3609; 70236481.505674
3333.81; 2444.0499; 70238969.442994
3334.83; 2431.1063; 70241444.204289
3335.84; 2414.8181; 70243902.384915
3336.86; 2395.5459; 70246340.947259
3337.88; 2373.6696; 70248757.240512
3338.90; 2349.5922; 70251149.024002
3339.92; 2323.7805; 70253514.532324
3340.93; 2296.8128; 70255852.588613
3341.95; 2269.4008; 70258162.740678
3342.97; 2242.3679; 70260445.374461
3343.99; 2216.5789; 70262701.756107
3345.01; 2192.8339; 70264933.96637
3346.02; 2171.7488; 70267144.712927
3347.04; 2153.6449; 70269337.03049
3348.06; 2138.4704; 70271513.901053
3349.08; 2125.7732; 70273677.846477
3350.10; 2114.7425; 70275830.563116
3351.11; 2104.3304; 70277972.680631
3352.13; 2093.4542; 70280103.72662
3353.15; 2081.255; 70282222.354393
3354.17; 2067.3583; 70284326.835977
3355.19; 2052.0566; 70286415.741034
3356.20; 2036.3292; 70288488.636247
3357.22; 2021.6445; 70290546.583137
3358.24; 2009.5518; 70292592.220129
3359.26; 2001.1507; 70294629.305178
3360.28; 1996.5977; 70296661.755502
3361.29; 1994.8282; 70298692.404549
3362.31; 1993.632; 70300721.83587
3363.33; 1990.1141; 70302747.6861
3364.35; 1981.438; 70304764.704499
3365.37; 1965.6342; 70306765.635255
3366.38; 1942.2098; 70308742.721035
3367.40; 1912.3478; 70310689.408584
3368.42; 1878.6122; 70312601.754718
3369.44; 1844.2508; 70314479.122425
3370.46; 1812.3284; 70316323.99454
3371.47; 1784.9837; 70318141.030887
3372.49; 1763.0528; 70319935.742517
3373.51; 1746.1621; 70321713.260185
3374.53; 1733.2135; 70323477.596707
3375.54; 1723.0413; 70325231.578398
3376.56; 1714.9673; 70326977.341127
3377.58; 1709.0328; 70328717.062782
3378.60; 1705.8281; 70330453.522188
3379.62; 1706.0051; 70332190.161715
3380.63; 1709.6844; 70333930.546695
3381.65; 1716.0098; 70335677.370581
3382.67; 1723.0398; 70337431.350782
3383.69; 1728.0441; 70339190.425095
3384.71; 1728.1181; 70340949.574736
3385.72; 1720.9276; 70342701.404797
3386.74; 1705.3523; 70344437.379892
3387.76; 1681.8398; 70346149.420237
3388.78; 1652.375; 70347831.466704
3389.80; 1620.0816; 70349480.639823
3390.81; 1588.5632; 70351097.728636
3391.83; 1561.1482; 70352686.910098
3392.85; 1540.2061; 70354254.773482
3393.87; 1526.6828; 70355808.870731
3394.89; 1519.9454; 70357356.109512
3395.90; 1517.971; 70358901.338448
3396.92; 1517.8441; 70360446.438256
3397.94; 1516.4609; 70361990.130016
3398.96; 1511.2868; 70363528.554738
3399.98; 1500.9868; 70365056.49451
3400.99; 1485.7634; 70366568.937577
3402.01; 1467.3013; 70368062.587006
3403.03; 1448.3202; 70369536.914465
3404.05; 1431.8524; 70370994.478381
3405.07; 1420.4474; 70372440.432546
3406.08; 1415.5345; 70373881.385546
3407.10; 1417.1243; 70375323.956924
3408.12; 1423.923; 70376773.449123
3409.14; 1433.7947; 70378232.990258
3410.16; 1444.3994; 70379703.32656
3411.17; 1453.7892; 70381183.221252
3412.19; 1460.7778; 70382670.230044
3413.21; 1465.0002; 70384161.536991
3414.23; 1466.6961; 70385654.570283
3415.25; 1466.3479; 70387147.249121
3416.26; 1464.3345; 70388637.878438
3417.28; 1460.7305; 70390124.839048
3418.30; 1455.2989; 70391606.270515
3419.32; 1447.6402; 70393079.905815
3420.34; 1437.4053; 70394543.122359
3421.35; 1424.4731; 70395993.174524
3422.37; 1409.0374; 70397427.513758
3423.39; 1391.5992; 70398844.101701
3424.41; 1372.9107; 70400241.665515
3425.42; 1353.9187; 70401619.896367
3426.44; 1335.7337; 70402979.615627
3427.46; 1319.601; 70404322.91252
3428.48; 1306.826; 70405653.204958
3429.50; 1298.604; 70406975.127796
3430.51; 1295.7532; 70408294.148632
3431.53; 1298.4067; 70409615.870586
3432.55; 1305.7741; 70410945.092306
3433.57; 1316.0906; 70412284.815742
3434.59; 1326.8266; 70413635.467986
3435.60; 1335.1495; 70414994.592544
3436.62; 1338.5305; 70416357.158843
3437.64; 1335.3293; 70417716.466401
3438.66; 1325.1783; 70419065.440746
3439.68; 1309.0486; 70420397.995743
3440.69; 1288.9738; 70421710.115412
3441.71; 1267.5181; 70423000.394186
3442.73; 1247.1469; 70424269.935895
3443.75; 1229.6752; 70425521.69215
3444.77; 1215.9353; 70426759.461831
3445.78; 1205.7234; 70427986.836261
3446.80; 1198.0029; 70429206.351566
3447.82; 1191.2787; 70430419.021892
3448.84; 1184.0286; 70431624.3119
3449.86; 1175.0884; 70432820.501186
3450.87; 1163.9191; 70434005.320568
3451.89; 1150.7225; 70435176.706369
3452.91; 1136.4043; 70436333.516877
3453.93; 1122.402; 70437476.073661
3454.95; 1110.4088; 70438606.421853
3455.96; 1102.0356; 70439728.246562
3456.98; 1098.4673; 70440846.438831
3458.00; 1100.1775; 70441966.372001
3459.02; 1106.7715; 70443093.017612
3460.04; 1117.0052; 70444230.080718
3461.05; 1128.9938; 70445379.347725
3462.07; 1140.5746; 70446540.403435
3463.09; 1149.7418; 70447710.790984
3464.11; 1155.0473; 70448886.579341
3465.13; 1155.8645; 70450063.199523
3466.14; 1152.4507; 70451236.344647
3467.16; 1145.8009; 70452402.720511
3468.18; 1137.34; 70453560.483518
3469.20; 1128.5451; 70454709.293751
3470.21; 1120.5971; 70455850.013277
3471.23; 1114.1439; 70456984.163671
3472.25; 1109.2205; 70458113.302251
3473.27; 1105.3275; 70459238.477955
3474.29; 1101.6333; 70460359.893121
3475.30; 1097.2451; 70461476.841314
3476.32; 1091.4879; 70462587.928943
3477.34; 1084.1337; 70463691.530295
3478.36; 1075.5341; 70464786.377578
3479.38; 1066.6228; 70465872.153512
3480.39; 1058.7731; 70466949.938886
3481.41; 1053.5218; 70468022.378662
3482.43; 1052.2011; 70469093.473967
3483.45; 1055.5556; 70470167.983985
3484.47; 1063.4404; 70471250.520403
3485.48; 1074.6961; 70472344.514644
3486.50; 1087.266; 70473451.304474
3487.52; 1098.5629; 70474569.594071
3488.54; 1106.022; 70475695.476763
3489.56; 1107.713; 70476823.080812
3490.57; 1102.8521; 70477945.736665
3491.59; 1092.0679; 70479057.414653
3492.61; 1077.3311; 70480154.091222
3493.63; 1061.5473; 70481234.700541
3494.65; 1047.9041; 70482301.421714
3495.66; 1039.1349; 70483359.216244
3496.68; 1036.8849; 70484414.72035
3497.70; 1041.3397; 70485474.759253
3498.72; 1051.2056; 70486544.841162
3499.74; 1064.0367; 70487627.984595
3500.75; 1076.8177; 70488724.138578
3501.77; 1086.6489; 70489830.300244
3502.79; 1091.3647; 70490941.262437
3503.81; 1089.9457; 70492050.780144
3504.83; 1082.6422; 70493152.863147
3505.84; 1070.8065; 70494242.897931
3506.86; 1056.499; 70495318.36833
3507.88; 1041.9791; 70496379.058042
3508.90; 1029.207; 70497426.746317
3509.92; 1019.4659; 70498464.518627
3510.93; 1013.1714; 70499495.883347
3511.95; 1009.8856; 70500523.90334
3512.97; 1008.5088; 70501550.521762
3513.99; 1007.5842; 70502576.199018
3515.00; 1005.6447; 70503599.901955
3516.02; 1001.5289; 70504619.415184
3517.04; 994.61471; 70505631.890039
3518.06; 984.93767; 70506634.514086
3519.08; 973.183; 70507625.172381
3520.09; 960.55671; 70508602.977657
3521.11; 948.55698; 70509568.567728
3522.13; 938.68071; 70510524.104186
3523.15; 932.1148; 70511472.956834
3524.17; 929.47301; 70512419.120254
3525.18; 930.64167; 70513366.473311
3526.20; 934.78433; 70514318.043418
3527.22; 940.52388; 70515275.456143
3528.24; 946.27419; 70516238.722433
3529.26; 950.64467; 70517206.437689
3530.27; 952.80692; 70518176.354017
3531.29; 952.70853; 70519146.170191
3532.31; 951.05401; 70520114.302131
3533.33; 949.03941; 70521080.3833
3534.35; 947.90818; 70522045.312922
3535.36; 948.4618; 70523010.80611
3536.38; 950.68611; 70523978.563551
3537.40; 953.62703; 70524949.314717
3538.42; 955.57459; 70525922.048414
3539.44; 954.51348; 70526893.701948
3540.45; 948.70708; 70527859.444812
3541.47; 937.23275; 70528813.507309
3542.49; 920.29829; 70529750.33126
3543.51; 899.23955; 70530665.718315
3544.53; 876.20402; 70531557.656201
3545.54; 853.62733; 70532426.611984
3546.56; 833.67245; 70533275.254567
3547.58; 817.80513; 70534107.7449
3548.60; 806.62138; 70534928.850657
3549.62; 799.94928; 70535743.164503
3550.63; 797.15056; 70536554.629369
3551.65; 797.48455; 70537366.434225
3552.67; 800.38845; 70538181.195128
3553.69; 805.5745; 70539001.235206
3554.71; 812.92637; 70539828.759175
3555.72; 822.26141; 70540665.785804
3556.74; 833.07976; 70541513.82505
3557.76; 844.42646; 70542373.414743
3558.78; 854.94641; 70543243.713293
3559.80; 863.13471; 70544122.347182
3560.81; 867.70462; 70545005.633046
3561.83; 867.94455; 70545889.163146
3562.85; 863.93249; 70546768.609144
3563.87; 856.52364; 70547640.513244
3564.88; 847.10682; 70548502.831428
3565.90; 837.20948; 70549355.074551
3566.92; 828.0871; 70550198.031485
3567.94; 820.4406; 70551033.204608
3568.96; 814.35985; 70551862.187791
3569.97; 809.50834; 70552686.232353
3570.99; 805.47297; 70553506.169076
3572.01; 802.13713; 70554322.710064
3573.03; 799.92069; 70555136.994807
3574.05; 799.77353; 70555951.129749
3575.06; 802.89867; 70556768.445949
3576.08; 810.28381; 70557593.279905
3577.10; 822.20115; 70558430.245198
3578.12; 837.86234; 70559283.152903
3579.14; 855.37671; 70560153.889485
3580.15; 872.0663; 70561041.615345
3581.17; 885.07195; 70561942.580394
3582.19; 892.08189; 70562850.681264
3583.21; 891.96353; 70563758.661646
3584.23; 885.1003; 70564659.655553
3585.24; 873.32249; 70565548.660161
3586.26; 859.44542; 70566423.538515
3587.28; 846.54919; 70567285.289065
3588.30; 837.21153; 70568137.53428
3589.32; 832.91446; 70568985.405262
3590.33; 833.78542; 70569834.162843
3591.35; 838.72613; 70570687.949856
3592.37; 845.86434; 70571549.003257
3593.39; 853.17278; 70572417.496335
3594.41; 859.06309; 70573291.985492
3595.42; 862.78702; 70574170.265452
3596.44; 864.55005; 70575050.340093
3597.46; 865.33559; 70575931.214385
3598.48; 866.52122; 70576813.295594
3599.50; 869.41622; 70577698.323793
3600.51; 874.85463; 70578588.88805
3601.53; 882.94313; 70579487.686052
3602.55; 893.00811; 70580396.729774
3603.57; 903.72926; 70581316.687167
3604.59; 913.40676; 70582246.495834
3605.60; 920.29175; 70583183.313126
3606.62; 922.91349; 70584122.799234
3607.64; 920.35209; 70585059.677951
3608.66; 912.42326; 70585988.485453
3609.67; 899.75367; 70586904.395858
3610.69; 883.73324; 70587803.998158
3611.71; 866.33756; 70588685.892407
3612.73; 849.82797; 70589550.980611
3613.75; 836.36083; 70590402.359849
3614.76; 827.56824; 70591244.788603
3615.78; 824.19986; 70592083.788496
3616.80; 825.92496; 70592924.544464
3617.82; 831.3739; 70593770.847216
3618.84; 838.44678; 70594624.349859
3619.85; 844.84274; 70595484.36331
3620.87; 848.6884; 70596348.29148
3621.89; 849.09471; 70597212.633258
3622.91; 846.46964; 70598074.302823
3623.93; 842.46931; 70598931.900221
3624.94; 839.57062; 70599786.546885
3625.96; 840.3658; 70600642.003005
3626.98; 846.77507; 70601503.983484
3628.00; 859.41332; 70602378.829158
3629.02; 877.31146; 70603271.894363
3630.03; 898.09069; 70604186.111931
3631.05; 918.5489; 70605121.155072
3632.07; 935.48798; 70606073.44147
3633.09; 946.53425; 70607036.972496
3634.11; 950.70717; 70608004.751374
3635.12; 948.57484; 70608970.359626
3636.14; 941.96895; 70609929.243366
3637.16; 933.3717; 70610879.375481
3638.18; 925.18438; 70611821.173254
3639.20; 919.11106; 70612756.788652
3640.21; 915.8361; 70613689.070279
3641.23; 915.06348; 70614620.565413
3642.25; 915.86159; 70615552.872995
3643.27; 917.16166; 70616486.503987
3644.29; 918.22275; 70617421.215125
3645.30; 918.90792; 70618356.623737
3646.32; 919.69691; 70619292.835502
3647.34; 921.45853; 70620230.840527
3648.36; 925.08444; 70621172.536571
3649.38; 931.12057; 70622120.377136
3650.39; 939.5177; 70623076.765617
3651.41; 949.56939; 70624043.386281
3652.43; 960.03885; 70625020.664399
3653.45; 969.42024; 70626007.492371
3654.47; 976.25139; 70627001.274155
3655.48; 979.39748; 70627998.258531
3656.50; 978.25091; 70628994.075741
3657.52; 972.82551; 70629984.370134
3658.54; 963.75148; 70630965.427551
3659.55; 952.19037; 70631934.716256
3660.57; 939.69092; 70632891.281061
3661.59; 928.00002; 70633835.945038
3662.61; 918.83942; 70634771.28392
3663.63; 913.66214; 70635701.352549
3664.64; 913.4137; 70636631.168278
3665.66; 918.33689; 70637565.995607
3666.68; 927.86658; 70638510.523751
3667.70; 940.65639; 70639468.071368
3668.72; 954.75867; 70640439.974496
3669.73; 967.94596; 70641425.301719
3670.75; 978.12423; 70642420.989976
3671.77; 983.75645; 70643422.411589
3672.79; 984.20046; 70644424.285184
3673.81; 979.87387; 70645421.7545
3674.82; 972.1925; 70646411.404509
3675.84; 963.2807; 70647391.982692
3676.86; 955.5099; 70648364.650542
3677.88; 950.96977; 70649332.696735
3678.90; 951.00013; 70650300.773826
3679.91; 955.90175; 70651273.840557
3680.93; 964.9002; 70652256.067329
3681.95; 976.36947; 70653249.969316
3682.97; 988.25016; 70654255.965335
3683.99; 998.54254; 70655272.438556
3685.00; 1005.7353; 70656296.233726
3686.02; 1009.0552; 70657323.408374
3687.04; 1008.4822; 70658349.999751
3688.06; 1004.5538; 70659372.59213
3689.08; 998.04728; 70660388.561198
3690.09; 989.66735; 70661395.999853
3691.11; 979.85149; 70662393.446385
3692.13; 968.75709; 70663379.599295
3693.15; 956.41679; 70664353.190312
3694.17; 942.98142; 70665313.104706
3695.18; 928.93307; 70666258.718487
3696.20; 915.16123; 70667190.31313
3697.22; 902.84844; 70668109.373884
3698.24; 893.18816; 70669018.600892
3699.26; 887.02779; 70669921.556904
3700.27; 884.56606; 70670822.00698
3701.29; 885.2225; 70671723.12529
3702.31; 887.74014; 70672626.806447
3703.33; 890.50211; 70673533.299168
3704.34; 891.96788; 70674441.283976
3705.36; 891.09208; 70675348.377263
3706.38; 887.5943; 70676251.909959
3707.40; 881.99824; 70677149.746104
3708.42; 875.43542; 70678040.901589
3709.43; 869.28407; 70678925.795257
3710.45; 864.76231; 70679806.085976
3711.47; 862.60211; 70680684.177704
3712.49; 862.89508; 70681562.567664
3713.51; 865.14037; 70682443.243226
3714.52; 868.45875; 70683327.29676
3715.54; 871.88955; 70684214.842697
3716.56; 874.6708; 70685105.219828
3717.58; 876.42097; 70685997.378551
3718.60; 877.18184; 70686890.311817
3719.61; 877.33142; 70687783.397341
3720.63; 877.41481; 70688676.567757
3721.65; 877.96003; 70689570.293185
3722.67; 879.33932; 70690465.422672
3723.69; 881.7124; 70691362.967843
3724.70; 885.05476; 70692263.915396
3725.72; 889.24489; 70693169.128319
3726.74; 894.16683; 70694079.351564
3727.76; 899.78405; 70694995.292904
3728.78; 906.15423; 70695917.718807
3729.79; 913.37712; 70696847.497299
3730.81; 921.49214; 70697785.536536
3731.83; 930.36041; 70698732.603291
3732.85; 939.57415; 70699689.049234
3733.87; 948.43202; 70700654.512105
3734.88; 956.00332; 70701627.68223
3735.90; 961.2805; 70702606.224295
3736.92; 963.39389; 70703586.917704
3737.94; 961.84064; 70704566.029972
3738.96; 956.66827; 70705539.876989
3739.97; 948.55644; 70706505.466509
3740.99; 938.75984; 70707461.083514
3742.01; 928.9083; 70708406.672079
3743.03; 920.69942; 70709343.904361
3744.05; 915.55411; 70710275.898938
3745.06; 914.32424; 70711206.641561
3746.08; 917.13606; 70712140.246499
3747.10; 923.42069; 70713080.248918
3748.12; 932.13069; 70714029.117736
3749.14; 942.08387; 70714988.118465
3750.15; 952.33073; 70715957.550056
3751.17; 962.42679; 70716937.259003
3752.19; 972.51466; 70717927.236962
3753.21; 983.17819; 70718928.069931
3754.22; 995.10668; 70719941.045586
3755.24; 1008.6757; 70720967.833896
3756.26; 1023.5884; 70722009.80269
3757.28; 1038.7122; 70723067.166884
3758.30; 1052.1891; 70724138.250006
3759.31; 1061.8119; 70725219.128682
3760.33; 1065.5698; 70726303.832718
3761.35; 1062.2072; 70727385.113775
3762.37; 1051.6269; 70728455.62459
3763.39; 1035.0131; 70729509.223265
3764.40; 1014.6313; 70730542.074129
3765.42; 993.35913; 70731553.270854
3766.44; 974.07749; 70732544.839708
3767.46; 959.08572; 70733521.147583
3768.48; 949.68757; 70734487.888545
3769.49; 946.03539; 70735450.911751
3770.51; 947.24156; 70736415.16278
3771.53; 951.69532; 70737383.947547
3772.55; 957.48083; 70738358.621718
3773.57; 962.7865; 70739338.696831
3774.58; 966.22202; 70740322.269151
3775.60; 967.00222; 70741306.635688
3776.62; 964.99834; 70742288.962359
3777.64; 960.68425; 70743266.897471
3778.66; 955.01389; 70744239.0604
3779.67; 949.25976; 70745205.365873
3780.69; 944.83101; 70746167.16307
3781.71; 943.08162; 70747127.179462
3782.73; 945.11894; 70748089.269763
3783.75; 951.62929; 70749057.987314
3784.76; 962.7445; 70750038.01967
3785.78; 977.97612; 70751033.557156
3786.80; 996.23754; 70752047.683978
3787.82; 1015.9605; 70753081.887941
3788.84; 1035.2943; 70754135.772857
3789.85; 1052.3586; 70755207.028519
3790.87; 1065.5105; 70756291.672243
3791.89; 1073.5809; 70757384.531236
3792.91; 1076.0405; 70758479.894026
3793.93; 1073.0656; 70759572.228457
3794.94; 1065.4874; 70760656.848667
3795.96; 1054.6317; 70761730.418256
3796.98; 1042.0733; 70762791.203943
3798.00; 1029.354; 70763839.041876
3799.01; 1017.7235; 70764875.040502
3800.03; 1007.9653; 70765901.105698
3801.05; 1000.3496; 70766919.418378
3802.07; 994.72485; 70767932.005347
3803.09; 990.71701; 70768940.512511
3804.10; 987.96745; 70769946.220739
3805.12; 986.32616; 70770950.258211
3806.14; 985.92585; 70771953.888177
3807.16; 987.10314; 70772958.716578
3808.18; 990.18962; 70773966.686878
3809.19; 995.24853; 70774979.80693
3810.21; 1001.863; 70775999.660245
3811.23; 1009.0735; 70777026.85351
3812.25; 1015.5156; 70778060.604538
3813.27; 1019.74; 70779098.655814
3814.28; 1020.6257; 70780137.60873
3815.30; 1017.755; 70781173.639453
3816.32; 1011.6189; 70782203.423828
3817.34; 1003.568; 70783225.012727
3818.36; 995.50429; 70784238.393133
3819.37; 989.39019; 70785245.549648
3820.39; 986.71461; 70786249.982543
3821.41; 988.07245; 70787255.797657
3822.43; 992.98159; 70788266.610063
3823.45; 999.9919; 70789284.558666
3824.46; 1007.0551; 70790309.697317
3825.48; 1012.0514; 70791339.92195
3826.50; 1013.3287; 70792371.446889
3827.52; 1010.1153; 70793399.700663
3828.54; 1002.7055; 70794420.411564
3829.55; 992.38728; 70795430.618991
3830.57; 981.14325; 70796429.380478
3831.59; 971.20956; 70797418.029903
3832.61; 964.60121; 70798399.952312
3833.63; 962.70671; 70799379.946203
3834.64; 966.02957; 70800363.322623
3835.66; 974.11566; 70801354.93033
3836.68; 985.66645; 70802358.296241
3837.70; 998.80533; 70803375.036967
3838.72; 1011.441; 70804404.64027
3839.73; 1021.6596; 70805444.645675
3840.75; 1028.0746; 70806491.181275
3841.77; 1030.071; 70807539.749107
3842.79; 1027.8972; 70808586.104081
3843.81; 1022.5845; 70809627.050994
3844.82; 1015.7074; 70810660.997327
3845.84; 1009.0314; 70811688.147723
3846.86; 1004.1238; 70812710.302457
3847.88; 1002.0161; 70813730.311595
3848.89; 1002.9956; 70814751.317794
3849.91; 1006.5793; 70815775.972123
3850.93; 1011.6749; 70816805.813515
3851.95; 1016.8859; 70817840.95943
3852.97; 1020.8819; 70818880.173187
3853.98; 1022.7356; 70819921.273899
3855.00; 1022.1371; 70820961.765379
3856.02; 1019.4345; 70821999.505689
3857.04; 1015.4934; 70823033.234121
3858.06; 1011.4217; 70824062.817768
3859.07; 1008.2395; 70825089.16207
3860.09; 1006.5879; 70826113.825144
3861.11; 1006.5585; 70827138.458232
3862.13; 1007.6889; 70828164.242097
3863.15; 1009.1269; 70829191.489705
3864.16; 1009.9147; 70830219.539334
3865.18; 1009.3178; 70831246.981261
3866.20; 1007.1005; 70832272.166066
3867.22; 1003.6689; 70833293.857691
3868.24; 1000.0276; 70834311.842622
3869.25; 997.54872; 70835327.304174
3870.27; 997.60472; 70836342.822733
3871.29; 1001.1596; 70837361.960018
3872.31; 1008.4367; 70838388.505073
3873.33; 1018.7702; 70839425.569181
3874.34; 1030.7043; 70840474.781634
3875.36; 1042.3338; 70841535.83243
3876.38; 1051.8048; 70842606.52432
3877.40; 1057.8328; 70843683.352455
3878.42; 1060.077; 70844762.465063
3879.43; 1059.2398; 70845840.725495
3880.45; 1056.8395; 70846916.542529
3881.47; 1054.7065; 70847990.188215
3882.49; 1054.3519; 70849063.472916
3883.51; 1056.4101; 70850138.852784
3884.52; 1060.3465; 70851218.23981
3885.54; 1064.5457; 70852301.901405
3886.56; 1066.7732; 70853387.830452
3887.58; 1064.8808; 70854471.8332
3888.60; 1057.5375; 70855548.360758
3889.61; 1044.7506; 70856611.871832
3890.63; 1028.0073; 70857658.338896
3891.65; 1009.9814; 70858686.456376
3892.67; 993.89212; 70859698.19567
3893.68; 982.70611; 70860698.548087
3894.70; 978.41959; 70861694.537013
3895.72; 981.62171; 70862693.785558
3896.74; 991.44325; 70863703.032004
3897.76; 1005.8711; 70864726.965398
3898.77; 1022.3022; 70865767.624915
3899.79; 1038.1542; 70866824.42114
3900.81; 1051.3613; 70867894.661593
3901.83; 1060.6446; 70868974.352072
3902.85; 1065.5401; 70870059.025889
3903.86; 1066.2432; 70871144.415466
3904.88; 1063.3771; 70872226.887472
3905.90; 1057.7838; 70873303.665744
3906.92; 1050.3991; 70874372.926677
3907.94; 1042.2122; 70875433.853703
3908.95; 1034.2659; 70876486.691743
3909.97; 1027.6345; 70877532.779295
3910.99; 1023.3347; 70878574.489819
3912.01; 1022.1652; 70879615.009928
3913.03; 1024.5166; 70880657.923631
3914.04; 1030.2199; 70881706.643043
3915.06; 1038.5051; 70882763.796463
3916.08; 1048.1072; 70883830.724412
3917.10; 1057.5107; 70884907.224649
3918.12; 1065.2753; 70885991.628959
3919.13; 1070.3573; 70887081.20649
3920.15; 1072.3378; 70888172.800143
3921.17; 1071.5018; 70889263.54273
3922.19; 1068.7518; 70890351.485914
3923.21; 1065.3914; 70891436.008371
3924.22; 1062.8415; 70892517.935194
3925.24; 1062.3628; 70893599.374717
3926.26; 1064.8425; 70894683.338403
3927.28; 1070.6754; 70895773.239763
3928.30; 1079.7393; 70896872.367758
3929.31; 1091.4417; 70897983.408306
3930.33; 1104.8119; 70899108.059155
3931.35; 1118.6156; 70900246.761538
3932.37; 1131.4829; 70901398.562316
3933.39; 1142.0498; 70902561.119721
3934.40; 1149.1115; 70903730.865685
3935.42; 1151.7812; 70904903.329279
3936.44; 1149.6323; 70906073.605392
3937.46; 1142.7979; 70907236.924327
3938.48; 1131.9998; 70908389.251269
3939.49; 1118.4943; 70909527.830235
3940.51; 1103.938; 70910651.591481
3941.53; 1090.1952; 70911761.363136
3942.55; 1079.1182; 70912859.858869
3943.56; 1072.3288; 70913951.443286
3944.58; 1071.0225; 70915041.697927
3945.60; 1075.8072; 70916136.823189
3946.62; 1086.5865; 70917242.921376
3947.64; 1102.5031; 70918365.221924
3948.65; 1121.9664; 70919507.335258
3949.67; 1142.7943; 70920670.650534
3950.69; 1162.4838; 70921854.008922
3951.71; 1178.5959; 70923053.768696
3952.73; 1189.1957; 70924264.318597
3953.74; 1193.2501; 70925478.995682
3954.76; 1190.8672; 70926691.247073
3955.78; 1183.2855; 70927895.780686
3956.80; 1172.5818; 70929089.418382
3957.82; 1161.1514; 70930271.420368
3958.83; 1151.0968; 70931443.187222
3959.85; 1143.704; 70932607.428545
3960.87; 1139.1711; 70933767.055582
3961.89; 1136.6816; 70934924.148406
3962.91; 1134.8015; 70936079.327368
3963.92; 1132.0679; 70937231.72368
3964.94; 1127.5662; 70938379.537446
3965.96; 1121.292; 70939520.964279
3966.98; 1114.1674; 70940655.13865
3968.00; 1107.7039; 70941782.733468
3969.01; 1103.4297; 70942905.977295
3970.03; 1102.2901; 70944028.061068
3971.05; 1104.2405; 70945152.130219
3972.07; 1108.1845; 70946280.214178
3973.09; 1112.2888; 70947412.476182
3974.10; 1114.5694; 70948547.059699
3975.12; 1113.5458; 70949680.601246
3976.14; 1108.7358; 70950809.246472
3977.16; 1100.8162; 70951929.829833
3978.18; 1091.3926; 70953040.820417
3979.19; 1082.4592; 70954142.717124
3980.21; 1075.7325; 70955237.766438
3981.23; 1072.0909; 70956329.108705
3982.25; 1071.3075; 70957419.65353
3983.27; 1072.1694; 70958511.075738
3984.28; 1072.9384; 70959603.28074
3985.30; 1071.998; 70960694.528455
3986.32; 1068.4684; 70961782.183165
3987.34; 1062.5833; 70962863.847065
3988.35; 1055.7021; 70963938.506244
3989.37; 1049.9495; 70965007.309494
3990.39; 1047.5921; 70966073.712999
3991.41; 1050.345; 70967142.918902
3992.43; 1058.8181; 70968220.75008
3993.44; 1072.2658; 70969312.270405
3994.46; 1088.7102; 70970420.530364
3995.48; 1105.3955; 70971545.775305
3996.50; 1119.4393; 70972685.316253
3997.52; 1128.4967; 70973834.077222
3998.53; 1131.2644; 70974985.655552
3999.55; 1127.7072; 70976133.612844
4000.57; 1118.9755; 70977272.681579
4001.59; 1107.0648; 70978399.625805
4002.61; 1094.3311; 70979513.607688
4003.62; 1082.9909; 70980616.045647
4004.64; 1074.7205; 70981710.064754
4005.66; 1070.4234; 70982799.709614
4006.68; 1070.1793; 70983889.105992
4007.70; 1073.3498; 70984981.729803
4008.71; 1078.789; 70986079.890498
4009.73; 1085.1052; 70987184.480717
4010.75; 1090.9282; 70988294.998536
4011.77; 1095.1518; 70989409.815788
4012.79; 1097.1246; 70990526.64126
4013.80; 1096.7689; 70991643.104694
4014.82; 1094.6042; 70992757.364526
4015.84; 1091.6571; 70993868.62437
4016.86; 1089.2572; 70994977.4412
4017.88; 1088.7412; 70996085.732781
4018.89; 1091.1211; 70997196.446973
4019.91; 1096.7917; 70998312.933577
4020.93; 1105.3592; 70999438.14153
4021.95; 1115.6504; 71000573.825535
4022.97; 1125.9211; 71001719.964627
4023.98; 1134.2278; 71002874.559612
4025.00; 1138.8819; 71004033.892275
4026.02; 1138.8746; 71005193.21745
4027.04; 1134.166; 71006347.749528
4028.06; 1125.7627; 71007493.727336
4029.07; 1115.5566; 71008629.315834
4030.09; 1105.9594; 71009755.134774
4031.11; 1099.4067; 71010874.283316
4032.13; 1097.8377; 71011991.834752
4033.15; 1102.2548; 71013113.88255
4034.16; 1112.4481; 71014246.30667
4035.18; 1126.9408; 71015393.483779
4036.20; 1143.1692; 71016557.180678
4037.22; 1157.8749; 71017735.847376
4038.23; 1167.654; 71018924.468785
4039.25; 1169.5773; 71020115.048026
4040.27; 1161.7789; 71021297.68879
4041.29; 1143.9023; 71022462.131928
4042.31; 1117.3057; 71023599.500922
4043.32; 1084.9606; 71024703.944035
4044.34; 1051.0318; 71025773.849034
4045.36; 1020.194; 71026812.362463
4046.38; 996.80577; 71027827.067726
4047.40; 984.10537; 71028828.844529
4048.41; 983.60289; 71029830.109822
4049.43; 994.80953; 71030842.782998
4050.45; 1015.3702; 71031876.386078
4051.47; 1041.5715; 71032936.66096
4052.49; 1069.1058; 71034024.964496
4053.50; 1093.911; 71035138.518715
4054.52; 1112.8939; 71036271.396687
4055.54; 1124.3803; 71037415.967332
4056.56; 1128.2188; 71038564.445344
4057.58; 1125.5548; 71039710.211565
4058.59; 1118.3776; 71040848.671675
4059.61; 1108.9847; 71041977.570254
4060.63; 1099.5112; 71043096.825164
4061.65; 1091.6234; 71044208.050663
4062.67; 1086.4123; 71045313.971509
4063.68; 1084.4499; 71046417.894747
4064.70; 1085.9293; 71047523.323932
4065.72; 1090.7975; 71048633.708709
4066.74; 1098.8171; 71049752.257129
4067.76; 1109.541; 71050881.721939
4068.77; 1122.234; 71052024.107697
4069.79; 1135.8117; 71053180.314951
4070.81; 1148.8648; 71054349.80974
4071.83; 1159.8128; 71055530.449118
4072.85; 1167.1771; 71056718.585065
4073.86; 1169.9147; 71057909.507775
4074.88; 1167.7167; 71059098.192953
4075.90; 1161.1745; 71060280.218479
4076.92; 1151.7484; 71061452.648691
4077.94; 1141.5279; 71062614.674814
4078.95; 1132.8372; 71063767.85421
4079.97; 1127.7878; 71064915.893536
4080.99; 1127.8925; 71066064.039389
4082.01; 1133.8368; 71067218.236344
4083.02; 1145.4512; 71068384.256256
4084.04; 1161.8627; 71069566.982383
4085.06; 1181.7554; 71070769.958391
4086.08; 1203.6431; 71071995.2151
4087.10; 1226.0724; 71073243.303876
4088.11; 1247.7157; 71074513.42466
4089.13; 1267.3678; 71075803.550415
4090.15; 1283.9018; 71077110.507001
4091.17; 1296.2557; 71078430.039369
4092.19; 1303.5006; 71079756.946757
4093.20; 1304.9956; 71081085.375924
4094.22; 1300.5863; 71082409.316681
4095.24; 1290.7703; 71083723.265122
4096.26; 1276.7483; 71085022.939766
4097.28; 1260.3176; 71086305.888729
4098.29; 1243.6138; 71087571.833914
4099.31; 1228.7618; 71088822.660412
4100.33; 1217.53; 71090062.053459
4101.35; 1211.0759; 71091294.876443
4102.37; 1209.8377; 71092526.439061
4103.38; 1213.5771; 71093761.808222
4104.40; 1221.5283; 71095005.271352
4105.42; 1232.5913; 71096259.996067
4106.44; 1245.5106; 71097527.87212
4107.46; 1259.0132; 71098809.493277
4108.47; 1271.9098; 71100104.242531
4109.49; 1283.1849; 71101410.469396
4110.51; 1292.0967; 71102725.768121
4111.53; 1298.2787; 71104047.359852
4112.55; 1301.809; 71105372.545267
4113.56; 1303.1963; 71106699.14282
4114.58; 1303.2461; 71108025.791091
4115.60; 1302.8152; 71109352.000711
4116.62; 1302.5144; 71110677.90421
4117.64; 1302.4643; 71112003.756692
4118.65; 1302.2083; 71113329.348545
4119.67; 1300.8481; 71114653.555758
4120.69; 1297.3847; 71115974.237389
4121.71; 1291.1634; 71117288.586004
4122.73; 1282.2631; 71118593.874459
4123.74; 1271.6689; 71119888.378529
4124.76; 1261.1294; 71121172.153888
4125.78; 1252.7056; 71122447.354099
4126.80; 1248.1347; 71123717.901321
4127.82; 1248.212; 71124988.52727
4128.83; 1252.4036; 71126263.420051
4129.85; 1258.841; 71127544.865829
4130.87; 1264.7301; 71128832.306494
4131.89; 1267.0705; 71130122.129636
4132.90; 1263.4792; 71131408.296923
4133.92; 1252.8738; 71132683.668386
4134.94; 1235.8131; 71133941.672804
4135.96; 1214.393; 71135177.872489
4136.98; 1191.731; 71136391.003204
4137.99; 1171.188; 71137583.222045
4139.01; 1155.5458; 71138759.517825
4140.03; 1146.3595; 71139926.46229
4141.05; 1143.6451; 71141090.643608
4142.07; 1145.9647; 71142257.186229
4143.08; 1150.863; 71143428.715145
4144.10; 1155.525; 71144604.989715
4145.12; 1157.4798; 71145783.254237
4146.14; 1155.1799; 71146959.17749
4147.16; 1148.3251; 71148128.122885
4148.17; 1137.8751; 71149286.430586
4149.19; 1125.7645; 71150432.410224
4150.21; 1114.4055; 71151566.826956
4151.23; 1106.1019; 71152692.790965
4152.25; 1102.5117; 71153815.100301
4153.26; 1104.2784; 71154939.208019
4154.28; 1110.9051; 71156070.06144
4155.30; 1120.8901; 71157211.079212
4156.32; 1132.0818; 71158363.489629
4157.34; 1142.1642; 71159526.16345
4158.35; 1149.1605; 71160695.959273
4159.37; 1151.8437; 71161868.486469
4160.39; 1149.9687; 71163039.104985
4161.41; 1144.287; 71164203.939767
4162.43; 1136.3503; 71165360.695304
4163.44; 1128.1533; 71166509.106656
4164.46; 1121.6943; 71167650.943044
4165.48; 1118.5423; 71168789.570869
4166.50; 1119.4949; 71169929.168319
4167.52; 1124.3915; 71171073.750302
4168.53; 1132.1215; 71172226.20116
4169.55; 1140.8309; 71173387.517786
4170.57; 1148.2969; 71174556.434444
4171.59; 1152.406; 71175729.533982
4172.61; 1151.6412; 71176901.855077
4173.62; 1145.4723; 71178067.896434
4174.64; 1134.5495; 71179222.818866
4175.66; 1120.6388; 71180363.580834
4176.68; 1106.2891; 71181489.735353
4177.69; 1094.2914; 71182603.676787
4178.71; 1087.0509; 71183710.247681
4179.73; 1086.0218; 71184815.771027
4180.75; 1091.353; 71185926.721252
4181.77; 1101.8378; 71187048.34461
4182.78; 1115.1858; 71188183.555641
4183.80; 1128.5429; 71189332.363653
4184.82; 1139.1234; 71190491.942134
4185.84; 1144.788; 71191657.286876
4186.86; 1144.4286; 71192822.265838
4187.87; 1138.0847; 71193980.786986
4188.89; 1126.797; 71195127.817758
4189.91; 1112.2801; 71196260.070931
4190.93; 1096.5307; 71197376.291869
4191.95; 1081.4845; 71198477.196459
4192.96; 1068.791; 71199565.179613
4193.98; 1059.7152; 71200643.923935
4195.00; 1055.1251; 71201717.995802
4196.02; 1055.5018; 71202792.45108
4197.04; 1060.9192; 71203872.421016
4198.05; 1070.9847; 71204962.637201
4199.07; 1084.7726; 71206066.888923
4200.09; 1100.8134; 71207187.469474
4201.11; 1117.1971; 71208324.727898
4202.13; 1131.8147; 71209476.866385
4203.14; 1142.7071; 71210640.092861
4204.16; 1148.4427; 71211809.158011
4205.18; 1148.4226; 71212978.202703
4206.20; 1143.0252; 71214141.752994
4207.22; 1133.5502; 71215295.658149
4208.23; 1121.9812; 71216437.786608
4209.25; 1110.6353; 71217568.365413
4210.27; 1101.7911; 71218689.94123
4211.29; 1097.374; 71219807.020574
4212.31; 1098.7374; 71220925.487805
4213.32; 1106.5391; 71222051.89688
4214.34; 1120.6824; 71223192.703193
4215.36; 1140.2944; 71224353.473659
4216.38; 1163.7408; 71225538.111601
4217.40; 1188.7086; 71226748.165707
4218.41; 1212.4067; 71227982.343364
4219.43; 1231.9198; 71229236.384579
4220.45; 1244.7022; 71230503.437679
4221.47; 1249.1254; 71231774.993405
4222.49; 1244.9421; 71233042.29079
4223.50; 1233.5077; 71234297.948422
4224.52; 1217.6439; 71235537.457417
4225.54; 1201.1255; 71236760.151371
4226.56; 1187.8857; 71237969.367788
4227.57; 1181.1394; 71239171.716735
4228.59; 1182.6631; 71240375.616771
4229.61; 1192.4371; 71241589.466241
4230.63; 1208.7469; 71242819.918412
4231.65; 1228.704; 71244070.686092
4232.66; 1249.0152; 71245342.129667
4233.68; 1266.7653; 71246631.64213
4234.70; 1279.9922; 71247934.618938
4235.72; 1287.9186; 71249245.664484
4236.74; 1290.8356; 71250559.679382
4237.75; 1289.7434; 71251872.582543
4238.77; 1285.9213; 71253181.594946
4239.79; 1280.5841; 71254485.174334
4240.81; 1274.7154; 71255782.779598
4241.83; 1269.0665; 71257074.634581
4242.84; 1264.2369; 71258361.57314
4243.86; 1260.723; 71259644.934766
4244.88; 1258.8655; 71260926.405478
4245.90; 1258.6965; 71262207.704184
4246.92; 1259.7754; 71263490.101186
4247.93; 1261.1345; 71264773.881646
4248.95; 1261.434; 71266057.96701
4249.97; 1259.3405; 71267339.921318
4250.99; 1254.0325; 71268616.472257
4252.01; 1245.6531; 71269884.493384
4253.02; 1235.5138; 71271142.193127
4254.04; 1225.9168; 71272390.123533
4255.06; 1219.6003; 71273631.624019
4256.08; 1218.9568; 71274872.469468
4257.10; 1225.2813; 71276119.753008
4258.11; 1238.3195; 71277380.308837
4259.13; 1256.2952; 71278659.1631
4260.15; 1276.43; 71279958.513758
4261.17; 1295.7865; 71281277.568537
4262.19; 1312.1397; 71282613.270144
4263.20; 1324.5645; 71283961.619603
4264.22; 1333.5275; 71285319.093029
4265.24; 1340.4564; 71286683.61977
4266.26; 1346.9583; 71288054.765203
4267.28; 1353.997; 71289433.075759
4268.29; 1361.3564; 71290818.87788
4269.31; 1367.6118; 71292211.047676
4270.33; 1370.6359; 71293606.295876
4271.35; 1368.4608; 71294999.329931
4272.36; 1360.1751; 71296383.929485
4273.38; 1346.5162; 71297754.624856
4274.40; 1329.9242; 71299108.430259
4275.42; 1314.0156; 71300446.041451
4276.44; 1302.6415; 71301772.074332
4277.45; 1298.8352; 71303094.232522
4278.47; 1303.9858; 71304421.633829
4279.49; 1317.4867; 71305762.778444
4280.51; 1336.94; 71307123.725689
4281.53; 1358.8214; 71308506.947201
4282.54; 1379.3773; 71309911.093796
4283.56; 1395.4891; 71311331.641532
4284.58; 1405.2859; 71312762.1619
4285.60; 1408.3983; 71314195.850619
4286.62; 1405.8634; 71315626.958931
4287.63; 1399.772; 71317051.8664
4288.65; 1392.7835; 71318469.65987
4289.67; 1387.6144; 71319882.19143
4290.69; 1386.5673; 71321293.657144
4291.71; 1391.1381; 71322709.775668
4292.72; 1401.7297; 71324136.676027
4293.74; 1417.5167; 71325579.64688
4294.76; 1436.513; 71327041.95511
4295.78; 1455.8865; 71328523.98472
4296.80; 1472.5141; 71330022.940501
4297.81; 1483.6933; 71331533.276263
4298.83; 1487.8515; 71333047.844913
4299.85; 1485.0528; 71334559.5646
4300.87; 1477.1272; 71336063.216307
4301.89; 1467.3376; 71337556.902619
4302.90; 1459.636; 71339042.749104
4303.92; 1457.693; 71340526.617661
4304.94; 1463.9688; 71342016.874722
4305.96; 1479.0971; 71343522.531766
4306.98; 1501.7636; 71345051.262263
4307.99; 1529.1154; 71346607.835767
4309.01; 1557.5785; 71348193.383428
4310.03; 1583.8359; 71349805.659988
4311.05; 1605.681; 71351440.173977
4312.07; 1622.502; 71353091.811008
4313.08; 1635.2717; 71354756.446999
4314.10; 1646.0668; 71356432.072004
4315.12; 1657.2755; 71358119.106944
4316.14; 1670.7339; 71359819.841967
4317.15; 1687.0464; 71361537.182408
4318.17; 1705.2806; 71363273.084506
4319.19; 1723.1208; 71365027.14712
4320.21; 1737.4337; 71366795.779618
4321.23; 1745.0905; 71368572.206427
4322.24; 1743.8208; 71370347.340731
4323.26; 1732.867; 71372111.324543
4324.28; 1713.2625; 71373855.351867
4325.30; 1687.6567; 71375573.313521
4326.32; 1659.7306; 71377262.847676
4327.33; 1633.3607; 71378925.538338
4328.35; 1611.7526; 71380566.232968
4329.37; 1596.7815; 71382191.687585
4330.39; 1588.7101; 71383808.925892
4331.41; 1586.354; 71385423.765827
4332.42; 1587.6268; 71387039.901375
4333.44; 1590.2895; 71388658.747479
4334.46; 1592.6686; 71390280.015339
4335.48; 1594.118; 71391902.758623
4336.50; 1595.0886; 71393526.489985
4337.51; 1596.7949; 71395151.958302
4338.53; 1600.6045; 71396781.304638
4339.55; 1607.3709; 71398417.538875
4340.57; 1616.9515; 71400063.525757
4341.59; 1628.094; 71401720.855224
4342.60; 1638.7497; 71403389.03166
4343.62; 1646.723; 71405065.324632
4344.64; 1650.4441; 71406745.405476
4345.66; 1649.5927; 71408424.61968
4346.68; 1645.3421; 71410099.50697
4347.69; 1640.1061; 71411769.064204
4348.71; 1636.8411; 71413435.297763
4349.73; 1638.1106; 71415102.823656
4350.75; 1645.2143; 71416777.580782
4351.77; 1657.6778; 71418465.025209
4352.78; 1673.2947; 71420168.366975
4353.80; 1688.7339; 71421887.425205
4354.82; 1700.5389; 71423618.500458
4355.84; 1706.2108; 71425355.349391
4356.86; 1705.0325; 71427090.998892
4357.87; 1698.3751; 71428819.871459
4358.89; 1689.3923; 71430539.599941
4359.91; 1682.2101; 71432252.017183
4360.93; 1680.8733; 71433963.073688
4361.95; 1688.3762; 71435681.767773
4362.96; 1706.0495; 71437418.45251
4363.98; 1733.4406; 71439183.020277
4365.00; 1768.6452; 71440983.424761
4366.02; 1808.9082; 71442824.815216
4367.03; 1851.2559; 71444709.313795
4368.05; 1892.959; 71446636.264323
4369.07; 1931.7421; 71448602.694396
4370.09; 1965.7878; 71450603.781559
4371.11; 1993.6758; 71452633.257467
4372.12; 2014.4105; 71454683.840406
4373.14; 2027.6222; 71456747.87235
4374.16; 2033.9073; 71458818.30223
4375.18; 2035.1615; 71460890.008856
4376.20; 2034.7096; 71462961.255415
4377.21; 2037.0663; 71465034.901025
4378.23; 2047.2791; 71467118.942787
4379.25; 2069.949; 71469226.06152
4380.27; 2108.1579; 71471372.075267
4381.29; 2162.5884; 71473573.496903
4382.30; 2231.0922; 71475844.652503
4383.32; 2308.8513; 71478194.963545
4384.34; 2389.1203; 71480626.984916
4385.36; 2464.3908; 71483135.628457
4386.38; 2527.7192; 71485708.737548
4387.39; 2573.9271; 71488328.884254
4388.41; 2600.4284; 71490976.008149
4389.43; 2607.5265; 71493630.357614
4390.45; 2598.1435; 71496275.155574
4391.47; 2577.06; 71498898.49146
4392.48; 2549.8402; 71501494.118752
4393.50; 2521.6774; 71504061.077569
4394.52; 2496.4137; 71506602.31904
4395.54; 2475.9513; 71509122.730646
4396.56; 2460.1889; 71511627.096824
4397.57; 2447.4894; 71514118.535394
4398.59; 2435.5419; 71516597.811982
4399.61; 2422.3642; 71519063.674232
4400.63; 2407.131; 71521514.029683
4401.65; 2390.5532; 71523947.509638
4402.66; 2374.6614; 71526364.812506
4403.68; 2362.0412; 71528769.268493
4404.70; 2354.7638; 71531166.316452
4405.72; 2353.3894; 71533561.965285
4406.74; 2356.4232; 71535960.702465
4407.75; 2360.4813; 71538363.57059
4408.77; 2361.1828; 71540767.152784
4409.79; 2354.527; 71543163.959657
4410.81; 2338.3121; 71545544.260427
4411.82; 2313.0973; 71547898.893701
4412.84; 2282.3296; 71550222.206752
4413.86; 2251.5159; 71552514.152755
4414.88; 2226.648; 71554780.784289
4415.90; 2212.3551; 71557032.866271
4416.91; 2210.3816; 71559282.939329
4417.93; 2218.9079; 71561541.691811
4418.95; 2232.9716; 71563814.760581
4419.97; 2245.8887; 71566100.978342
4420.99; 2251.2386; 71568392.64205
4422.00; 2244.7832; 71570677.734515
4423.02; 2225.701; 71572943.40207
4424.04; 2196.7376; 71575179.586176
4425.06; 2163.2316; 71577381.662546
4426.08; 2131.3377; 71579551.272399
4427.09; 2106.0343; 71581695.124424
4428.11; 2089.5569; 71583822.203166
4429.13; 2080.7546; 71585940.321545
4430.15; 2075.5488; 71588053.140617
4431.17; 2068.3162; 71590158.597233
4432.18; 2053.7274; 71592249.203061
4433.20; 2028.4473; 71594314.074843
4434.22; 1992.1795; 71596342.027603
4435.24; 1947.7722; 71598324.775608
4436.26; 1900.4143; 71600259.315389
4437.27; 1856.2297; 71602148.877097
4438.29; 1820.7292; 71604002.30089
4439.31; 1797.5804; 71605832.160217
4440.33; 1788.0017; 71607652.268766
4441.35; 1790.8662; 71609475.293238
4442.36; 1803.3789; 71611311.055114
4443.38; 1822.0445; 71613165.817793
4444.40; 1843.6096; 71615042.532765
4445.42; 1865.7283; 71616941.763691
4446.44; 1887.2308; 71618862.883199
4447.45; 1908.0073; 71620805.152312
4448.47; 1928.626; 71622768.410369
4449.49; 1949.8423; 71624753.26565
4450.51; 1972.1496; 71626760.828792
4451.53; 1995.4767; 71628792.138005
4452.54; 2019.0826; 71630847.476946
4453.56; 2041.651; 71632925.789581
4454.58; 2061.5554; 71635024.364016
4455.60; 2077.2336; 71637138.89816
4456.62; 2087.5951; 71639263.979882
4457.63; 2092.3669; 71641393.919048
4458.65; 2092.2828; 71643523.772606
4459.67; 2089.0447; 71645650.329919
4460.69; 2085.0308; 71647772.801314
4461.70; 2082.7965; 71649892.998273
4462.72; 2084.4802; 71652014.909149
4463.74; 2091.2729; 71654143.734724
4464.76; 2103.1072; 71656284.607137
4465.78; 2118.6693; 71658441.321035
4466.79; 2135.7454; 71660615.417723
4467.81; 2151.8134; 71662805.870866
4468.83; 2164.7086; 71665009.450852
4469.85; 2173.1729; 71667221.647056
4470.87; 2177.1248; 71669437.866166
4471.88; 2177.5832; 71671654.551877
4472.90; 2176.2778; 71673869.908781
4473.92; 2175.0803; 71676084.046626
4474.94; 2175.4346; 71678298.545133
4475.96; 2177.9599; 71680515.614298
4476.97; 2182.3339; 71682737.13608
4477.99; 2187.4729; 71684963.889082
4479.01; 2191.9294; 71687195.178662
4480.03; 2194.3688; 71689428.951365
4481.05; 2193.9662; 71691662.314323
4482.06; 2190.6084; 71693892.259123
4483.08; 2184.8508; 71696116.342975
4484.10; 2177.6719; 71698333.118952
4485.12; 2170.126; 71700542.213578
4486.14; 2163.0283; 71702744.083083
4487.15; 2156.778; 71704939.590014
4488.17; 2151.3677; 71707129.589476
4489.19; 2146.5483; 71709314.682997
4490.21; 2142.0552; 71711495.202783
4491.23; 2137.7803; 71713671.370847
4492.24; 2133.8007; 71715843.487864
4493.26; 2130.2467; 71718011.987117
4494.28; 2127.0701; 71720177.252665
4495.30; 2123.8346; 71722339.224642
4496.32; 2119.6587; 71724496.945769
4497.33; 2113.385; 71726648.280466
4498.35; 2103.9565; 71728790.017441
4499.37; 2090.8803; 71730918.443364
4500.39; 2074.5927; 71733030.289245
4501.41; 2056.5563; 71735123.774789
4502.42; 2038.9968; 71737199.385566
4503.44; 2024.3251; 71739260.061165
4504.46; 2014.4124; 71741310.646089
4505.48; 2009.963; 71743356.701686
4506.49; 2010.2073; 71745403.005951
4507.51; 2013.0363; 71747452.189993
4508.53; 2015.5427; 71749503.925458
4509.55; 2014.792; 71751554.896796
4510.57; 2008.5696; 71753599.533997
4511.58; 1995.87; 71755631.243514
4512.60; 1977.0013; 71757643.745572
4513.62; 1953.3259; 71759632.147046
4514.64; 1926.7838; 71761593.529828
4515.66; 1899.4053; 71763527.042473
4516.67; 1872.9806; 71765433.655952
4517.69; 1848.9547; 71767315.812074
4518.71; 1828.4911; 71769177.13714
4519.73; 1812.5689; 71771022.254031
4520.75; 1801.9709; 71772856.582678
4521.76; 1797.0993; 71774685.952179
4522.78; 1797.6684; 71776515.901012
4523.80; 1802.4317; 71778350.698658
4524.82; 1809.1272; 71780192.312093
4525.84; 1814.7701; 71782039.669728
4526.85; 1816.2832; 71783888.567626
4527.87; 1811.3048; 71785732.397709
4528.89; 1798.9028; 71787563.603153
4529.91; 1779.9187; 71789375.483619
4530.93; 1756.7677; 71791163.797314
4531.94; 1732.7084; 71792927.619712
4532.96; 1710.7925; 71794669.132681
4533.98; 1692.8368; 71796392.36752
4535.00; 1678.7767; 71798101.289724
4536.02; 1666.6424; 71799797.859736
4537.03; 1653.1927; 71801480.738583
4538.05; 1635.0129; 71803145.111135
4539.07; 1609.7197; 71804783.736281
4540.09; 1576.8746; 71806388.926605
4541.11; 1538.2996; 71807954.84922
4542.12; 1497.6862; 71809479.429185
4543.14; 1459.6221; 71810965.261504
4544.16; 1428.3403; 71812419.250335
4545.18; 1406.5781; 71813851.086158
4546.20; 1394.8792; 71815271.012987
4547.21; 1391.5213; 71816687.521643
4548.23; 1393.0477; 71818105.584064
4549.25; 1395.2033; 71819525.840783
4550.27; 1393.9775; 71820944.849686
4551.29; 1386.4588; 71822356.204895
4552.30; 1371.3034; 71823752.132562
4553.32; 1348.7625; 71825125.114559
4554.34; 1320.3513; 71826469.175213
4555.36; 1288.3285; 71827780.637994
4556.37; 1255.1677; 71829058.344533
4557.39; 1223.1538; 71830303.462287
4558.41; 1194.1501; 71831519.055537
4559.43; 1169.5066; 71832709.562825
4560.45; 1150.0358; 71833880.249628
4561.46; 1135.9881; 71835036.636535
4562.48; 1127.0043; 71836183.878232
4563.50; 1122.0713; 71837326.098411
4564.52; 1119.5497; 71838465.75174
4565.54; 1117.3326; 71839603.148148
4566.55; 1113.1601; 71840736.297118
4567.57; 1105.0471; 71841861.18741
4568.59; 1091.7238; 71842972.515108
4569.61; 1072.9594; 71844064.741482
4570.63; 1049.6583; 71845133.248288
4571.64; 1023.6752; 71846175.305447
4572.66; 997.38342; 71847190.598731
4573.68; 973.10553; 71848181.178174
4574.70; 952.56528; 71849150.848526
4575.72; 936.51617; 71850104.181575
4576.73; 924.65118; 71851045.436571
4577.75; 915.81429; 71851977.695995
4578.77; 908.44393; 71852902.45271
4579.79; 901.10971; 71853819.743506
4580.81; 892.97794; 71854728.756519
4581.82; 884.06559; 71855628.697145
4582.84; 875.20876; 71856519.621892
4583.86; 867.76012; 71857402.964245
4584.88; 863.11284; 71858281.575868
4585.90; 862.20124; 71859159.259522
4586.91; 865.13536; 71860039.929989
4587.93; 871.08481; 71860926.656735
4588.95; 878.44991; 71861820.880842
4589.97; 885.26886; 71862722.046341
4590.99; 889.73539; 71863627.758575
4592.00; 890.66683; 71864534.418977
4593.02; 887.77746; 71865438.138122
4594.04; 881.6735; 71866335.643702
4595.06; 873.57427; 71867224.904617
4596.08; 864.85086; 71868105.285471
4597.09; 856.53154; 71868977.197615
4598.11; 848.93331; 71869841.37509
4599.13; 841.53797; 71870698.024428
4600.15; 833.15311; 71871546.13834
4601.16; 822.30819; 71872383.212589
4602.18; 807.76268; 71873205.480136
4603.20; 788.96984; 71874008.61739
4604.22; 766.35528; 71874788.733997
4605.24; 741.32759; 71875543.373494
4606.25; 716.01955; 71876272.250497
4607.27; 692.83636; 71876977.528016
4608.29; 673.9393; 71877663.569146
4609.31; 660.80456; 71878336.239678
4610.33; 653.9675; 71879001.950376
4611.34; 653.00323; 71879666.67949
4612.36; 656.72515; 71880335.197356
4613.38; 663.52462; 71881010.636783
4614.40; 671.74392; 71881694.44311
4615.42; 679.97804; 71882386.631414
4616.43; 687.23484; 71883086.206828
4617.45; 692.93614; 71883791.585916
4618.47; 696.79508; 71884500.89324
4619.49; 698.64228; 71885212.080933
4620.51; 698.2822; 71885922.90208
4621.52; 695.44073; 71886630.830731
4622.54; 689.82285; 71887333.040627
4623.56; 681.25159; 71888026.525352
4624.58; 669.82381; 71888708.377082
4625.60; 656.00881; 71889376.165738
4626.61; 640.63631; 71890028.30586
4627.63; 624.76324; 71890664.287876
4628.65; 609.45809; 71891284.689909
4629.67; 595.5771; 71891890.961699
4630.69; 583.61286; 71892485.054403
4631.70; 573.66993; 71893069.025635
4632.72; 565.57289; 71893644.754429
4633.74; 559.05857; 71894213.851932
4634.76; 553.96949; 71894777.768968
4635.78; 550.36332; 71895338.015078
4636.79; 548.487; 71895896.351172
4637.81; 548.61998; 71896454.822639
4638.83; 550.8478; 71897015.561926
4639.85; 554.86055; 71897580.386026
4640.87; 559.86772; 71898150.307208
4641.88; 564.68058; 71898725.127667
4642.90; 567.95255; 71899303.278854
4643.92; 568.50907; 71899881.996559
4644.94; 565.66441; 71900457.818515
4645.96; 559.4257; 71901027.289735
4646.97; 550.52166; 71901587.69703
4647.99; 540.24924; 71902137.647441
4649.01; 530.18568; 71902677.353587
4650.03; 521.84715; 71903208.571472
4651.04; 516.37981; 71903734.223837
4652.06; 514.34886; 71904257.808779
4653.08; 515.65694; 71904782.725297
4654.10; 519.58992; 71905311.645415
4655.12; 524.96522; 71905846.037357
4656.13; 530.34869; 71906385.909435
4657.15; 534.30512; 71906929.808989
4658.17; 535.64948; 71907475.077046
4659.19; 533.66491; 71908018.324895
4660.21; 528.25121; 71908556.061834
4661.22; 519.96874; 71909085.36757
4662.24; 509.95383; 71909604.478567
4663.26; 499.70627; 71910113.157989
4664.28; 490.782; 71910612.752884
4665.30; 484.45612; 71911105.908311
4666.31; 481.43832; 71911595.991749
4667.33; 481.71644; 71912086.3583
4668.35; 484.5729; 71912579.632602
4669.37; 488.77103; 71913077.180415
4670.39; 492.85974; 71913578.890366
4671.40; 495.51202; 71914083.300222
4672.42; 495.80584; 71914588.009175
4673.44; 493.37803; 71915090.246715
4674.46; 488.4226; 71915587.43985
4675.48; 481.55198; 71916077.638981
4676.49; 473.57563; 71916559.718537
4677.51; 465.26755; 71917033.340827
4678.53; 457.18705; 71917498.737518
4679.55; 449.59406; 71917956.404871
4680.57; 442.46814; 71918406.818342
4681.58; 435.61125; 71918850.251802
4682.60; 428.79449; 71919286.746093
4683.62; 421.90172; 71919716.223836
4684.64; 415.02816; 71920138.704593
4685.66; 408.50596; 71920554.546032
4686.67; 402.84839; 71920964.628311
4687.69; 398.6258; 71921370.41217
4688.71; 396.30528; 71921773.833849
4689.73; 396.09831; 71922177.044834
4690.75; 397.86163; 71922582.050808
4691.76; 401.08546; 71922990.338498
4692.78; 404.97907; 71923402.589714
4693.80; 408.63512; 71923818.562629
4694.82; 411.22763; 71924237.174612
4695.83; 412.18577; 71924656.761936
4696.85; 411.29151; 71925075.438943
4697.87; 408.67443; 71925491.451875
4698.89; 404.71214; 71925903.431374
4699.91; 399.8783; 71926310.490228
4700.92; 394.5973; 71926712.173257
4701.94; 389.15925; 71927108.320579
4702.96; 383.72074; 71927498.931736
4703.98; 378.379; 71927884.105233
4705.00; 373.27326; 71928264.081305
4706.01; 368.65424; 71928639.355414
4707.03; 364.87552; 71929010.782945
4708.05; 362.29573; 71929379.584366
4709.07; 361.12342; 71929747.192421
4710.09; 361.26821; 71930114.947873
4711.10; 362.26895; 71930483.722035
4712.12; 363.34571; 71930853.59229
4713.14; 363.5777; 71931223.698698
4714.16; 362.15889; 71931592.360824
4715.18; 358.64908; 71931957.450106
4716.19; 353.13335; 71932316.924623
4717.21; 346.23148; 71932669.373333
4718.23; 338.94883; 71933014.408616
4719.25; 332.41503; 71933352.792774
4720.27; 327.5938; 71933686.269126
4721.28; 325.05455; 71934017.160633
4722.30; 324.87173; 71934347.86603
4723.32; 326.67135; 71934680.403373
4724.34; 329.79437; 71935016.119815
4725.36; 333.51084; 71935355.619455
4726.37; 337.2101; 71935698.884783
4727.39; 340.51016; 71936045.509432
4728.41; 343.26542; 71936394.938815
4729.43; 345.49099; 71936746.633735
4730.45; 347.24887; 71937100.118103
4731.46; 348.54779; 71937454.924715
4732.48; 349.29488; 71937810.491825
4733.50; 349.31092; 71938166.075265
4734.52; 348.3939; 71938520.725219
4735.54; 346.39807; 71938873.343502
4736.55; 343.29382; 71939222.8018
4737.57; 339.18567; 71939568.078173
4738.59; 334.28505; 71939908.365933
4739.61; 328.8534; 71940243.124506
4740.63; 323.14051; 71940572.067604
4741.64; 317.34222; 71940895.108292
4742.66; 311.59033; 71941212.293805
4743.68; 305.97281; 71941523.760921
4744.70; 300.56973; 71941829.727937
4745.71; 295.48506; 71942130.518982
4746.73; 290.85761; 71942426.599481
4747.75; 286.84448; 71942718.594781
4748.77; 283.58239; 71943007.269415
4749.79; 281.14177; 71943293.459604
4750.80; 279.4916; 71943577.969993
4751.82; 278.48945; 71943861.460233
4752.84; 277.90195; 71944144.352424
4753.86; 277.45052; 71944426.785085
4754.88; 276.86862; 71944708.625394
4755.89; 275.95358; 71944989.534233
4756.91; 274.59898; 71945269.06414
4757.93; 272.80042; 71945546.763195
4758.95; 270.637; 71945822.259985
4759.97; 268.23768; 71946095.31437
4760.98; 265.74526; 71946365.831578
4762.00; 263.28882; 71946633.848238
4763.02; 260.96979; 71946899.504223
4764.04; 258.86005; 71947163.012584
4765.06; 257.00534; 71947424.632934
4766.07; 255.42598; 71947684.645561
4767.09; 254.11017; 71947943.318746
4768.11; 253.00125; 71948200.8631
4769.13; 251.98642; 71948457.374406
4770.15; 250.89741; 71948712.77714
4771.16; 249.53156; 71948966.789502
4772.18; 247.69512; 71949218.932443
4773.20; 245.26055; 71949468.597097
4774.22; 242.22191; 71949715.168552
4775.24; 238.72863; 71949958.183996
4776.25; 235.08164; 71950197.486964
4777.27; 231.68614; 71950433.333454
4778.29; 228.96829; 71950666.413293
4779.31; 227.27579; 71950897.770237
4780.33; 226.78837; 71951128.631013
4781.34; 227.46311; 71951360.178646
4782.36; 229.02987; 71951593.321167
4783.38; 231.03851; 71951828.508402
4784.40; 232.94571; 71952065.637078
4785.42; 234.21949; 71952304.06241
4786.43; 234.43749; 71952542.709655
4787.45; 233.35876; 71952780.258804
4788.47; 230.95809; 71953015.36417
4789.49; 227.42123; 71953246.869172
4790.50; 223.10742; 71953473.982898
4791.52; 218.48919; 71953696.395467
4792.54; 214.08051; 71953914.320185
4793.56; 210.36258; 71954128.460216
4794.58; 207.71561; 71954339.905745
4795.59; 206.36392; 71954549.975313
4796.61; 206.34202; 71954760.022583
4797.63; 207.48819; 71954971.236604
4798.65; 209.46953; 71955184.467546
4799.67; 211.83696; 71955400.108434
4800.68; 214.10196; 71955618.054987
4801.70; 215.82064; 71955837.751088
4802.72; 216.66784; 71956058.309604
4803.74; 216.48519; 71956278.682187
4804.76; 215.29369; 71956497.841877
4805.77; 213.27019; 71956714.941725
4806.79; 210.69601; 71956929.421174
4807.81; 207.89229; 71957141.046557
4808.83; 205.15762; 71957349.888164
4809.85; 202.72093; 71957556.249328
4810.86; 200.7164; 71957760.569958
4811.88; 199.18083; 71957963.327448
4812.90; 198.06925; 71958164.953396
4813.92; 197.28172; 71958365.777671
4814.94; 196.69461; 71958566.004292
4815.95; 196.19033; 71958765.717579
4816.97; 195.68093; 71958964.912323
4817.99; 195.12196; 71959163.53806
4819.01; 194.51412; 71959361.545045
4820.03; 193.89209; 71959558.918831
4821.04; 193.30269; 71959755.692631
4822.06; 192.77792; 71959951.932239
4823.08; 192.31101; 71960147.696552
4824.10; 191.84397; 71960342.98543
4825.12; 191.27243; 71960537.692506
4826.13; 190.46828; 71960731.580996
4827.15; 189.3142; 71960924.294682
4828.17; 187.73962; 71961115.405517
4829.19; 185.74669; 71961304.487632
4830.21; 183.41795; 71961491.199188
4831.22; 180.90404; 71961675.351695
4832.24; 178.39648; 71961856.951617
4833.26; 176.09507; 71962036.208795
4834.28; 174.17953; 71962213.516044
4835.30; 172.79138; 71962389.410209
4836.31; 172.02548; 71962564.524726
4837.33; 171.92663; 71962739.538619
4838.35; 172.48447; 71962915.120368
4839.37; 173.62361; 71963091.861714
4840.38; 175.19144; 71963270.199039
4841.40; 176.95173; 71963450.328265
4842.42; 178.5944; 71963632.129661
4843.44; 179.76852; 71963815.126261
4844.46; 180.13813; 71963998.499106
4845.47; 179.45093; 71964181.172414
4846.49; 177.60273; 71964361.964332
4847.51; 174.67862; 71964539.779629
4848.53; 170.95662; 71964713.806096
4849.55; 166.86923; 71964883.671773
4850.56; 162.92956; 71965049.527038
4851.58; 159.63834; 71965212.03198
4852.60; 157.392; 71965372.25025
4853.62; 156.41117; 71965531.470068
4854.64; 156.70289; 71965690.986848
4855.65; 158.06257; 71965851.887727
4856.67; 160.11375; 71966014.876618
4857.69; 162.37805; 71966180.170471
4858.71; 164.36315; 71966347.485063
4859.73; 165.6535; 71966516.113177
4860.74; 165.98704; 71966685.080818
4861.76; 165.3013; 71966853.350411
4862.78; 163.73661; 71967020.027211
4863.80; 161.59199; 71967184.520886
4864.82; 159.24156; 71967346.621922
4865.83; 157.03129; 71967506.472999
4866.85; 155.18519; 71967664.444826
4867.87; 153.75039; 71967820.956089
4868.89; 152.6012; 71967976.297523
4869.91; 151.50403; 71968130.522084
4870.92; 150.22384; 71968283.443471
4871.94; 148.63595; 71968434.748456
4872.96; 146.80197; 71968584.186531
4873.98; 144.9785; 71968731.768391
4875.00; 143.54954; 71968877.895624
4876.01; 142.9013; 71969023.362983
4877.03; 143.28083; 71969169.216686
4878.05; 144.68827; 71969316.503105
4879.07; 146.84371; 71969465.98367
4880.09; 149.24453; 71969617.908158
4881.10; 151.29794; 71969771.922928
4882.12; 152.48679; 71969927.147902
4883.14; 152.51456; 71970082.401147
4884.16; 151.38258; 71970236.502081
4885.17; 149.37617; 71970388.560574
4886.19; 146.96747; 71970538.167115
4887.21; 144.67018; 71970685.435114
4888.23; 142.89541; 71970830.896471
4889.25; 141.8539; 71970975.297617
4890.26; 141.5305; 71971119.369556
4891.28; 141.72981; 71971263.644391
4892.30; 142.16804; 71971408.365317
4893.32; 142.57303; 71971553.498508
4894.34; 142.75715; 71971698.819123
4895.35; 142.64225; 71971844.022776
4896.37; 142.23737; 71971988.814276
4897.39; 141.58792; 71972132.944671
4898.41; 140.72426; 71972276.195891
4899.43; 139.63419; 71972418.337468
4900.44; 138.27127; 71972559.091654
4901.46; 136.59361; 71972698.138057
4902.48; 134.61419; 71972835.169489
4903.50; 132.43821; 71972969.985876
4904.52; 130.26796; 71973102.593043
4905.53; 128.368; 71973233.266124
4906.55; 126.99945; 71973362.54608
4907.57; 126.34428; 71973491.159106
4908.59; 126.44511; 71973619.874766
4909.61; 127.18163; 71973749.340174
4910.62; 128.29292; 71973879.936835
4911.64; 129.4398; 71974011.700965
4912.66; 130.28871; 71974144.329249
4913.68; 130.59239; 71974277.266671
4914.70; 130.24402; 71974409.84946
4915.71; 129.29065; 71974541.461759
4916.73; 127.90478; 71974671.663303
4917.75; 126.32507; 71974800.256769
4918.77; 124.78582; 71974927.283354
4919.79; 123.45652; 71975052.956761
4920.80; 122.40782; 71975177.562644
4921.82; 121.61153; 71975301.357934
4922.84; 120.97084; 71975424.501025
4923.86; 120.36906; 71975547.031537
4924.88; 119.72028; 71975668.901614
4925.89; 119.00627; 71975790.044857
4926.91; 118.28936; 71975910.458324
4927.93; 117.69841; 71976030.270225
4928.95; 117.39269; 71976149.770917
4929.97; 117.51447; 71976269.395579
4930.98; 118.1432; 71976389.660263
4932.00; 119.26337; 71976511.06523
4933.02; 120.7543; 71976633.987902
4934.04; 122.40467; 71976758.590572
4935.05; 123.94877; 71976884.765071
4936.07; 125.11685; 71977012.128626
4937.09; 125.6885; 71977140.074096
4938.11; 125.53749; 71977267.865847
4939.13; 124.65805; 71977394.762359
4940.14; 123.16638; 71977520.140419
4941.16; 121.27699; 71977643.595165
4942.18; 119.2589; 71977764.995578
4943.20; 117.38202; 71977884.485404
4944.22; 115.86641; 71978002.432409
4945.23; 114.84626; 71978119.34095
4946.25; 114.3564; 71978235.75083
4947.27; 114.34273; 71978352.146799
4948.29; 114.69133; 71978468.897628
4949.31; 115.26562; 71978586.233056
4950.32; 115.93976; 71978704.254725
4951.34; 116.61866; 71978822.967492
4952.36; 117.24073; 71978942.313492
4953.38; 117.76596; 71979062.194157
4954.40; 118.15775; 71979182.473646
4955.41; 118.36824; 71979302.967409
4956.43; 118.33534; 71979423.427682
4957.45; 117.99388; 71979543.540357
4958.47; 117.2971; 71979662.943745
4959.49; 116.23986; 71979781.270903
4960.50; 114.87321; 71979898.206878
4961.52; 113.30332; 71980013.544767
4962.54; 111.67282; 71980127.222878
4963.56; 110.12994; 71980239.3304
4964.58; 108.79496; 71980350.078979
4965.59; 107.7352; 71980459.748766
4966.61; 106.9563; 71980568.625667
4967.63; 106.41232; 71980676.94882
4968.65; 106.03016; 71980784.882943
4969.67; 105.73938; 71980892.521065
4970.68; 105.49713; 71980999.912595
4971.70; 105.30012; 71981107.103571
4972.72; 105.18055; 71981214.172827
4973.74; 105.18881; 71981321.250498
4974.76; 105.36967; 71981428.512274
4975.77; 105.74039; 71981536.151427
4976.79; 106.278; 71981644.337843
4977.81; 106.91908; 71981753.176856
4978.83; 107.57153; 71981862.680032
4979.84; 108.13396; 71981972.755732
4980.86; 108.51693; 71982083.22128
4981.88; 108.66023; 71982193.832708
4982.90; 108.54228; 71982304.324064
4983.92; 108.18018; 71982414.446821
4984.93; 107.62177; 71982524.001134
4985.95; 106.93235; 71982632.853657
4986.97; 106.18027; 71982740.940585
4987.99; 105.42468; 71982848.258363
4989.01; 104.70866; 71982954.847262
4990.02; 104.05836; 71983060.774186
4991.04; 103.48785; 71983166.120351
4992.06; 103.00692; 71983270.976954
4993.08; 102.62859; 71983375.448426
4994.10; 102.37253; 71983479.659248
4995.11; 102.26235; 71983583.757905
4996.13; 102.31627; 71983687.911448
4997.15; 102.53404; 71983792.286677
4998.17; 102.88455; 71983897.018706
