#Wavenumber (cm^-1); Spectrum (K*cm*km*mol^-1); Integral (K*km*mol^-1)
0.00; 76.043913; 77.409421683518
1.02; 79.691583; 158.53201433286
2.04; 90.436536; 250.59250597731
3.05; 107.66383; 360.18964198395
4.07; 130.3028; 492.83226902622
5.09; 156.82836; 652.47677604069
6.11; 185.36473; 841.1700742539
7.13; 213.92161; 1058.9330409639
8.14; 240.73686; 1303.992771757
9.16; 264.64231; 1573.3872273331
10.18; 285.33736; 1863.8483500458
11.20; 303.46476; 2172.7623844664
12.22; 320.43639; 2498.9528014854
13.23; 338.03599; 2843.0588516607
14.25; 357.90392; 3207.3896017711
15.27; 381.0557; 3595.2878598101
16.29; 407.58315; 4010.1899185328
17.31; 436.63312; 4454.6635942971
18.32; 466.67083; 4929.7143574558
19.34; 495.94361; 5434.5635506915
20.36; 522.99701; 5966.9519361669
21.38; 547.0807; 6523.8564768626
22.40; 568.32147; 7102.383207044
23.41; 587.61952; 7700.5545169216
24.43; 606.3151; 8317.757128914
25.45; 625.74424; 8954.7377594791
26.47; 646.83057; 9613.183365822
27.48; 669.83897; 10295.050536074
28.50; 694.35401; 11001.872958454
29.52; 719.46794; 11734.260276094
30.54; 744.09635; 12491.718254626
31.56; 767.30758; 13272.804255744
32.57; 788.56306; 14075.527423511
33.59; 807.81226; 14897.845447166
34.61; 825.44581; 15738.113662362
35.63; 842.16022; 16595.396423877
36.65; 858.80664; 17469.624526326
37.66; 876.28016; 18361.639918465
38.68; 895.46498; 19273.184631678
39.70; 917.20655; 20206.861324728
40.72; 942.25715; 21166.038446111
41.74; 971.15138; 22154.628641333
42.75; 1004.0103; 23176.667780602
43.77; 1040.3295; 24235.678330705
44.79; 1078.8499; 25333.900968636
45.81; 1117.6131; 26471.582835503
46.83; 1154.2595; 27646.56917627
47.84; 1186.5417; 28854.417468166
48.86; 1212.9321; 30089.129989073
49.88; 1233.1385; 31344.411805125
50.90; 1248.3403; 32615.168374159
51.92; 1261.021; 33898.833348617
52.93; 1274.4008; 35196.118416716
53.95; 1291.6059; 36510.917521733
54.97; 1314.8136; 37849.341002328
55.99; 1344.637; 39218.12348678
57.01; 1379.9477; 40622.850731388
58.02; 1418.1954; 42066.512454041
59.04; 1456.1256; 43548.785488472
60.06; 1490.6644; 45066.217566627
61.08; 1519.6909; 46613.197346631
62.10; 1542.4645; 48183.359606594
63.11; 1559.601; 49770.966074782
64.13; 1572.6486; 51371.854465519
65.15; 1583.446; 52983.734144405
66.17; 1593.5037; 54605.852104543
67.19; 1603.6172; 56238.265198528
68.20; 1613.8149; 57881.059086929
69.22; 1623.6078; 59533.821777818
70.24; 1632.4005; 61195.535028837
71.26; 1639.875; 62864.857027626
72.27; 1646.1967; 64540.614263182
73.29; 1651.9804; 66222.258987586
74.31; 1658.0649; 67910.097502751
75.33; 1665.2226; 69605.222253953
76.35; 1673.9428; 71309.223798993
77.36; 1684.3803; 73023.850263903
78.38; 1696.4678; 74750.781269951
79.40; 1710.1045; 76491.593879542
80.42; 1725.2908; 78247.865512983
81.44; 1742.1024; 80021.250559245
82.45; 1760.4792; 81813.3424178
83.47; 1779.9096; 83625.213616865
84.49; 1799.1663; 85456.687299453
85.51; 1816.2655; 87305.567158793
86.53; 1828.7536; 89167.159395685
87.54; 1834.3018; 91034.3994468
88.56; 1831.4498; 92898.736321138
89.58; 1820.2519; 94751.674171413
90.60; 1802.5709; 96586.613532165
91.62; 1781.8633; 98400.473456297
92.63; 1762.4603; 100194.58196977
93.65; 1748.5285; 101974.5085431
94.67; 1743.0166; 103748.82417674
95.69; 1746.9147; 105527.10798809
96.71; 1759.0621; 107317.75732571
97.72; 1776.5573; 109126.21600975
98.74; 1795.6309; 110954.0907339
99.76; 1812.6893; 112799.33025219
100.78; 1825.1963; 114657.30128732
101.80; 1832.1291; 116522.32966079
102.81; 1833.9144; 118389.17536079
103.83; 1831.9319; 120254.00299683
104.85; 1827.8239; 122114.64882839
105.87; 1822.8912; 123970.27344903
106.89; 1817.797; 125820.71238517
107.90; 1812.6506; 127665.91247082
108.92; 1807.3812; 129505.74852118
109.94; 1802.1893; 131340.29941522
110.96; 1797.8371; 133170.42001411
111.98; 1795.6156; 134998.2792313
112.99; 1796.9689; 136827.51606831
114.01; 1802.9139; 138662.80459379
115.03; 1813.492; 140508.86115896
116.05; 1827.4983; 142369.17556471
117.07; 1842.6379; 144244.90141994
118.08; 1856.1031; 146134.33428488
119.10; 1865.4041; 148033.23515579
120.12; 1869.1799; 149935.97968116
121.14; 1867.7107; 151837.22853952
122.15; 1862.9419; 153733.62303243
123.17; 1857.9927; 155624.9794536
124.19; 1856.2837; 157514.5961162
125.21; 1860.5436; 159408.54920582
126.23; 1871.9859; 161314.15003882
127.24; 1889.886; 163237.97244799
128.26; 1911.6663; 165183.96628653
129.28; 1933.4444; 167152.12921067
130.30; 1950.8798; 169138.04065346
131.32; 1960.0926; 171133.33032694
132.33; 1958.4323; 173126.92992381
133.35; 1944.9433; 175106.79830592
134.37; 1920.462; 177061.74574328
135.39; 1887.3718; 178983.00875044
136.41; 1849.1055; 180865.31831785
137.42; 1809.5156; 182707.32712131
138.44; 1772.2353; 184511.38623148
139.46; 1740.1366; 186282.77016368
140.48; 1714.9661; 188028.53160979
141.50; 1697.2107; 189756.21888444
142.51; 1686.2064; 191472.70427566
143.53; 1680.463; 193183.34309449
144.55; 1678.1306; 194891.60762837
145.57; 1677.4943; 196599.22439597
146.59; 1677.365; 198306.70959946
147.60; 1677.2549; 200014.08270955
148.62; 1677.2802; 201721.4816
149.64; 1677.8227; 203429.43272161
150.66; 1679.0649; 205138.64835974
151.68; 1680.5731; 206849.39921881
152.69; 1681.1006; 208560.68704845
153.71; 1678.7216; 210269.55322203
154.73; 1671.2916; 211970.85593676
155.75; 1657.1071; 213657.71948608
156.77; 1635.5499; 215322.63866397
157.78; 1607.4783; 216958.98221904
158.80; 1575.1993; 218562.46717079
159.82; 1541.9822; 220132.13848383
160.84; 1511.2337; 221670.50918068
161.86; 1485.5763; 223182.76179343
162.87; 1466.1155; 224675.20408821
163.89; 1452.1322; 226153.41201367
164.91; 1441.3051; 227620.59840572
165.93; 1430.3965; 229076.68029687
166.94; 1416.1921; 230518.30278088
167.96; 1396.4082; 231939.78603943
168.98; 1370.2992; 233334.69145199
170.00; 1338.8074; 234697.53958555
171.02; 1304.2445; 236025.20419132
172.03; 1269.6417; 237317.64462758
173.05; 1237.993; 238577.86807806
174.07; 1211.6249; 239811.2499282
175.09; 1191.8552; 241024.5071101
176.11; 1178.9894; 242224.66743479
177.12; 1172.5819; 243418.30516955
178.14; 1171.8117; 244611.15894092
179.16; 1175.8044; 245808.07704662
180.18; 1183.7785; 247013.11246314
181.20; 1194.9871; 248229.55771462
182.21; 1208.5158; 249459.77464295
183.23; 1223.0687; 250704.80579854
184.25; 1236.8818; 251963.89810655
185.27; 1247.861; 253234.16671949
186.29; 1253.9514; 254510.63518427
187.30; 1253.6498; 255786.79662545
188.32; 1246.4956; 257055.67533007
189.34; 1233.3609; 258311.18349837
190.36; 1216.4036; 259549.42986564
191.38; 1198.6465; 260769.60022999
192.39; 1183.2704; 261974.11840565
193.41; 1172.8132; 263167.99163757
194.43; 1168.5154; 264357.48991359
195.45; 1170.0247; 265548.52453544
196.47; 1175.5683; 266745.20236502
197.48; 1182.5565; 267948.99389643
198.50; 1188.4358; 269158.77026306
199.52; 1191.5253; 270371.69163069
200.54; 1191.5677; 271584.65615654
201.56; 1189.8159; 272795.83739146
202.57; 1188.6302; 274005.81163536
203.59; 1190.7218; 275217.91502943
204.61; 1198.2924; 276437.72497401
205.63; 1212.348; 277671.84288848
206.65; 1232.3954; 278926.36827293
207.66; 1256.5952; 280205.52793529
208.68; 1282.2882; 281510.84202032
209.70; 1306.7035; 282841.00976404
210.72; 1327.6118; 284192.46130589
211.74; 1343.7421; 285560.33279978
212.75; 1354.8774; 286939.53952724
213.77; 1361.6673; 288325.65804647
214.79; 1365.2752; 289715.44928151
215.81; 1367.002; 291106.99830147
216.82; 1367.9906; 292499.55370859
217.84; 1369.0503; 293893.18781683
218.86; 1370.575; 295288.37401138
219.88; 1372.5058; 296685.52568214
220.90; 1374.302; 298084.50584798
221.91; 1374.9303; 299484.12556846
222.93; 1372.9199; 300881.69874776
223.95; 1366.5405; 302272.7779608
224.97; 1354.1222; 303651.21595697
225.99; 1334.4704; 305009.64920507
227.00; 1307.2609; 306340.38439693
228.02; 1273.2753; 307636.52375838
229.04; 1234.361; 308893.05001714
230.06; 1193.0883; 310107.56246094
231.08; 1152.1845; 311280.43652021
232.09; 1113.9118; 312414.35069572
233.11; 1079.5901; 313513.32680235
234.13; 1049.4154; 314581.58638004
235.15; 1022.6271; 315622.57661959
236.17; 997.94641; 316638.44300636
237.18; 974.11773; 317630.05282097
238.20; 950.3534; 318597.47157046
239.22; 926.53253; 319540.64170687
240.24; 903.10782; 320459.96649596
241.26; 880.79167; 321356.57440592
242.27; 860.17514; 322232.19558391
243.29; 841.44897; 323088.75432815
244.31; 824.34183; 323927.89873832
245.33; 808.29206; 324750.70517194
246.35; 792.76728; 325557.70804935
247.36; 777.5837; 326349.25470379
248.38; 763.07766; 327126.03483485
249.40; 750.04367; 327889.54692695
250.42; 739.44982; 328642.27493976
251.44; 732.033; 329387.45294751
252.45; 727.92775; 330128.45198614
253.47; 726.47465; 330867.97183529
254.49; 726.29132; 331607.30505722
255.51; 725.59619; 332345.93066791
256.53; 722.6868; 333081.59464717
257.54; 716.42065; 333810.87995889
258.56; 706.5456; 334530.11289055
259.58; 693.77555; 335236.3464646
260.60; 679.58819; 335928.13791475
261.61; 665.80683; 336605.90053977
262.63; 654.09237; 337271.73835163
263.65; 645.49487; 337928.82427424
264.67; 640.19357; 338580.51369846
265.69; 637.49662; 339229.45775336
266.70; 636.09555; 339876.97556996
267.72; 634.49607; 340522.86518896
268.74; 631.49731; 341165.70219691
269.76; 626.57747; 341803.53102497
270.78; 620.07165; 342434.73720942
271.79; 613.08726; 343058.83358048
272.81; 607.17964; 343676.91625159
273.83; 603.88196; 344291.64202392
274.85; 604.22812; 344906.72017957
275.87; 608.41136; 345526.05668675
276.88; 615.6809; 346152.79327538
277.90; 624.5076; 346788.5150679
278.92; 632.96762; 347432.84879285
279.94; 639.22901; 348083.55634048
280.96; 641.99983; 348737.08446692
281.97; 640.81653; 349389.40804259
282.99; 636.10948; 350036.94004789
284.01; 629.05679; 350677.29271401
285.03; 621.29975; 351309.74904611
286.05; 614.62266; 351935.40839271
287.06; 610.6875; 352557.06191116
288.08; 610.87039; 353178.901609
289.10; 616.19412; 353806.16063353
290.12; 627.3132; 354444.73840583
291.14; 644.50247; 355100.81411081
292.15; 667.62522; 355780.42777776
293.17; 696.0974; 356489.02488923
294.19; 728.89481; 357231.00835555
295.21; 764.65119; 358009.39027422
296.23; 801.86015; 358825.64930085
297.24; 839.13847; 359679.85604811
298.26; 875.45894; 360571.03547059
299.28; 910.24733; 361497.62797808
300.30; 943.27569; 362457.84192743
301.32; 974.3644; 363449.70284179
302.33; 1002.998; 364470.7115147
303.35; 1028.0223; 365517.19381192
304.37; 1047.5889; 366583.59408962
305.39; 1059.4377; 367662.05596984
306.41; 1061.4786; 368742.59533882
307.42; 1052.5014; 369813.99630117
308.44; 1032.7622; 370865.30367503
309.46; 1004.2026; 371887.53863096
310.48; 970.1668; 372875.12656976
311.49; 934.65344; 373826.56343625
312.51; 901.31205; 374744.06021344
313.53; 872.5012; 375632.22878552
314.55; 848.72386; 376496.1930549
315.57; 828.63737; 377339.71013569
316.58; 809.6424; 378163.89116448
317.60; 788.85747; 378966.91402955
318.62; 764.15346; 379744.78927853
319.64; 734.90653; 380492.89241597
320.66; 702.23018; 381207.73244016
321.67; 668.63046; 381888.36939132
322.69; 637.22365; 382537.03556771
323.71; 610.79412; 383158.79762096
324.73; 591.005; 383760.4152091
325.75; 578.00123; 384348.79551739
326.76; 570.49542; 384929.53523352
327.78; 566.26147; 385505.96497767
328.80; 562.83666; 386078.90841081
329.82; 558.18943; 386647.12116697
330.84; 551.15314; 387208.17128238
331.85; 541.52956; 387759.42501147
332.87; 529.88724; 388298.82735296
333.89; 517.17385; 388825.28801123
334.91; 504.30123; 389338.6448987
335.93; 491.8412; 389839.3180201
336.94; 479.90782; 390327.84347684
337.96; 468.22545; 390804.47677617
338.98; 456.32111; 391268.99197381
340.00; 443.75146; 391720.71180893
341.02; 430.28176; 392158.72007768
342.03; 415.96737; 392582.15690768
343.05; 401.12943; 392990.48935807
344.07; 386.25176; 393383.6769863
345.09; 371.84404; 393762.19816927
346.11; 358.31741; 394126.9498303
347.12; 345.90592; 394479.06713467
348.14; 334.64798; 394819.72433615
349.16; 324.42378; 395149.97374441
350.18; 315.03089; 395470.66159793
351.20; 306.27282; 395782.43411154
352.21; 298.03488; 396085.82075788
353.23; 290.32663; 396381.36073602
354.25; 283.27959; 396669.72713293
355.27; 277.10128; 396951.80428216
356.28; 271.99896; 397228.68748452
357.30; 268.09592; 397501.597565
358.32; 265.36687; 397771.72958322
359.34; 263.61425; 398040.07750919
360.36; 262.49642; 398307.28753486
361.37; 261.60271; 398573.58780061
362.39; 260.55589; 398838.82245167
363.41; 259.11348; 399102.58879456
364.43; 257.23871; 399364.44670057
365.45; 255.12037; 399624.14822611
366.46; 253.13501; 399881.82874535
367.48; 251.7605; 400138.11007218
368.50; 251.46215; 400394.08768577
369.52; 252.57853; 400651.20172737
370.54; 255.23276; 400911.01765899
371.55; 259.28799; 401174.96164489
372.57; 264.35617; 401444.06481926
373.59; 269.85864; 401718.76927097
374.61; 275.12846; 401998.83817369
375.63; 279.5373; 402283.39508399
376.64; 282.62512; 402571.09526286
377.66; 284.20879; 402860.40754483
378.68; 284.44693; 403149.96224285
379.70; 283.84416; 403438.90335402
380.72; 283.18829; 403727.17681814
381.73; 283.42815; 404015.69444179
382.75; 285.51444; 404306.33581866
383.77; 290.23658; 404601.78413512
384.79; 298.091; 404905.22790896
385.81; 309.20886; 405219.98918044
386.82; 323.35505; 405549.15066372
387.84; 339.99031; 405895.24612491
388.86; 358.3717; 406260.05305351
389.88; 377.65949; 406644.49411485
390.90; 397.00329; 407048.62632872
391.91; 415.59556; 407471.68467072
392.93; 432.69886; 407912.15343458
393.95; 447.66711; 408367.85923164
394.97; 459.98302; 408836.10209757
395.99; 469.3225; 409313.85215324
397.00; 475.63637; 409798.029456
398.02; 479.21961; 410285.85433869
399.04; 480.72878; 410775.21549686
400.06; 481.11634; 411264.97117286
401.07; 481.47565; 411755.09260319
402.09; 482.82515; 412246.58777609
403.11; 485.89028; 412741.20311105
404.13; 490.95357; 413240.97266088
405.15; 497.83034; 413747.74246628
406.16; 505.9887; 414262.81712748
407.18; 514.78289; 414786.84389494
408.20; 523.72421; 415319.97254322
409.22; 532.69307; 415862.23110566
410.24; 542.00908; 416413.97295657
411.25; 552.32171; 416976.21262408
412.27; 564.34781; 417550.69434158
413.29; 578.541; 418139.62411784
414.31; 594.81055; 418745.1155899
415.33; 612.39814; 419368.51047537
416.34; 629.97203; 420009.79481894
417.36; 645.9234; 420667.3169673
418.38; 658.77652; 421337.92304103
419.40; 667.57817; 422017.48881233
420.42; 672.13201; 422701.69019543
421.43; 672.9923; 423386.76731876
422.45; 671.21302; 424070.03320875
423.47; 667.9355; 424749.96272206
424.49; 663.9586; 425425.84392687
425.51; 659.44701; 426097.13252592
426.52; 653.88943; 426762.76375308
427.54; 646.33328; 427420.70314192
428.56; 635.82478; 428067.94533234
429.58; 621.90892; 428701.02177669
430.60; 605.01892; 429316.9049329
431.61; 586.62047; 429914.05925316
432.63; 569.05873; 430493.33648747
433.65; 555.15697; 431058.46233137
434.67; 547.69614; 431615.99336872
435.69; 548.93675; 432174.78729442
436.70; 560.31524; 432745.164034
437.72; 582.37026; 433337.99183092
438.74; 614.86117; 433963.89397298
439.76; 656.96977; 434632.66085328
440.78; 707.45635; 435352.82089413
441.79; 764.68135; 436131.23351287
442.81; 826.48704; 436972.56165335
443.83; 890.02402; 437878.56769871
444.85; 951.66402; 438847.32060958
445.87; 1007.1352; 439872.54074895
446.88; 1051.945; 440943.37541248
447.90; 1082.0452; 442044.85074556
448.92; 1094.581; 443159.08692918
449.94; 1088.5089; 444267.14200404
450.95; 1064.8797; 445351.14355665
451.97; 1026.6749; 446396.25431408
452.99; 978.22368; 447392.04380576
454.01; 924.3571; 448332.99944636
455.03; 869.53881; 449218.15242872
456.04; 817.20588; 450050.03275329
457.06; 769.47208; 450833.32212584
458.08; 727.21482; 451573.59543569
459.10; 690.44051; 452276.43408007
460.12; 658.74517; 452947.00824064
461.13; 631.68547; 453590.03678668
462.15; 608.94217; 454209.91364069
463.17; 590.26306; 454810.7759697
464.19; 575.26859; 455396.37457147
465.21; 563.25473; 455969.74357622
466.22; 553.116; 456532.79180008
467.24; 543.44898; 457085.99941161
468.26; 532.81322; 457628.38027706
469.28; 520.06002; 458157.77893738
470.30; 504.61445; 458671.45467632
471.31; 486.61934; 459166.81216718
472.33; 466.90548; 459642.1017933
473.35; 446.81341; 460096.93856579
474.37; 427.93364; 460532.55654854
475.39; 411.84114; 460951.79305341
476.40; 399.88119; 461358.85485221
477.42; 393.03216; 461758.94463585
478.44; 391.84438; 462157.82530894
479.46; 396.44371; 462561.3878985
480.48; 406.59018; 462975.27915617
481.49; 421.78628; 463404.63938973
482.51; 441.42403; 463853.9900084
483.53; 464.94182; 464327.28071899
484.55; 491.93972; 464828.05412624
485.57; 522.19261; 465359.62366582
486.58; 555.51879; 465925.11782738
487.60; 591.51161; 466527.25111848
488.62; 629.20742; 467167.75711678
489.64; 666.81842; 467846.54949438
490.66; 701.67148; 468560.82078641
491.67; 730.44923; 469304.38658518
492.69; 749.7334; 470067.58283874
493.71; 756.73501; 470837.90642216
494.73; 750.00632; 471601.38049453
495.74; 729.90603; 472344.39333294
496.76; 698.64742; 473055.58625596
497.78; 659.88509; 473727.32080321
498.80; 617.9439; 474356.36102564
499.82; 576.91084; 474943.63136355
500.83; 539.85198; 475493.17738412
501.85; 508.36758; 476010.67364555
502.87; 482.57912; 476501.91836419
503.89; 461.49812; 476971.70353443
504.91; 443.61165; 477423.28105369
505.92; 427.47226; 477858.42937104
506.94; 412.11131; 478277.94090482
507.96; 397.18403; 478682.25710538
508.98; 382.86186; 479071.99395941
510.00; 369.57128; 479448.20157773
511.01; 357.71043; 479812.33535923
512.03; 347.45329; 480166.02781916
513.05; 338.6933; 480510.8029861
514.07; 331.11383; 480847.86257367
515.09; 324.32847; 481178.01495988
516.10; 318.022; 481501.74763642
517.12; 312.04036; 481819.39126158
518.14; 306.41047; 482131.30390234
519.16; 301.30079; 482438.01510326
520.18; 296.94958; 482740.29695734
521.19; 293.58836; 483039.15724163
522.21; 291.37839; 483335.76786764
523.23; 290.36731; 483631.34925906
524.25; 290.46775; 483927.03289796
525.27; 291.45932; 484223.72591222
526.28; 293.01737; 484522.00495499
527.30; 294.77033; 484822.06843218
528.32; 296.38022; 485123.77071111
529.34; 297.63057; 485426.74579045
530.36; 298.49718; 485730.60303995
531.37; 299.17644; 486035.15174097
532.39; 300.0548; 486340.5945785
533.41; 301.62038; 486647.63111312
534.43; 304.33666; 486957.43269756
535.45; 308.51249; 487271.48509806
536.46; 314.20631; 487591.33356646
537.48; 321.19385; 487918.2950445
538.50; 329.01092; 488253.21396858
539.52; 337.0613; 488596.32782708
540.54; 344.7603; 488947.27893528
541.55; 351.67446; 489305.26835558
542.57; 357.6184; 489669.30845383
543.59; 362.68324; 490038.50434605
544.61; 367.19211; 490412.29006545
545.62; 371.60174; 490790.56460605
546.64; 376.3864; 491173.70971981
547.66; 381.94374; 491562.51196508
548.68; 388.55068; 491958.03978597
549.70; 396.37268; 492361.53006801
550.71; 405.50409; 492774.3157325
551.73; 416.00182; 493197.78763186
552.75; 427.88007; 493633.35107457
553.77; 441.05978; 494082.33089955
554.79; 455.30243; 494545.80912927
555.80; 470.18451; 495024.43667018
556.82; 485.16892; 495518.317697
557.84; 499.7949; 496027.08733354
558.86; 513.94913; 496550.26537075
559.88; 528.12369; 497087.87250099
560.89; 543.54083; 497641.17361196
561.91; 562.05234; 498213.31863572
562.93; 585.79862; 498809.63635662
563.95; 616.7122; 499437.4227671
564.97; 656.02769; 500105.23064608
565.98; 703.97631; 500821.84815261
567.00; 759.78168; 501595.27312073
568.02; 821.9559; 502431.98876277
569.04; 888.77028; 503336.71855185
570.06; 958.70092; 504312.63471901
571.07; 1030.6639; 505361.80613365
572.09; 1103.9553; 506485.5850298
573.11; 1177.9533; 507684.69062109
574.13; 1251.757; 508958.92527033
575.15; 1323.9713; 510306.67095073
576.16; 1392.7759; 511724.45670234
577.18; 1456.2837; 513206.89061988
578.20; 1513.0511; 514747.11135762
579.22; 1562.5359; 516337.70545261
580.24; 1605.3341; 517971.86633206
581.25; 1643.155; 519644.52717982
582.27; 1678.6319; 521353.30206375
583.29; 1715.1525; 523099.25331192
584.31; 1756.8503; 524887.65114907
585.33; 1808.7677; 526728.89865068
586.34; 1877.0271; 528639.63128766
587.36; 1968.7559; 530643.73988869
588.38; 2091.5618; 532772.859575
589.40; 2252.559; 535065.86744302
590.41; 2457.213; 537567.20423662
591.43; 2708.4649; 540324.30465008
592.45; 3006.5908; 543384.88433153
593.47; 3350.0031; 546795.04295609
594.49; 3736.7898; 550598.93374555
595.50; 4166.3822; 554840.13098752
596.52; 4640.5525; 559564.01318821
597.54; 5163.091; 564819.81704666
598.56; 5737.9843; 570660.8374743
599.58; 6366.5469; 577141.70751404
600.59; 7044.4709; 584312.67491945
601.61; 7759.9172; 592211.93572333
602.63; 8493.4647; 600857.91631151
603.65; 9220.0567; 610243.53620595
604.67; 9912.3002; 620333.8301053
605.68; 10543.933; 631067.09922467
606.70; 11092.219; 642358.49961752
607.72; 11538.52; 654104.21485684
608.74; 11867.155; 666184.4668702
609.76; 12063.499; 678464.58837426
610.77; 12112.723; 690794.81781692
611.79; 12000.437; 703010.74473738
612.81; 11715.693; 714936.81432753
613.83; 11255.741; 726394.67279132
614.85; 10630.959; 737216.53068426
615.86; 9867.9687; 747261.69704573
616.88; 9009.2938; 756432.76940426
617.90; 8108.9627; 764687.34355338
618.92; 7224.7781; 772041.85591596
619.94; 6409.1652; 778566.10949002
620.95; 5701.0544; 784369.53683725
621.97; 5120.9909; 789582.48459868
622.99; 4670.673; 794337.02817341
624.01; 4336.7692; 798751.67204345
625.03; 4097.6204; 802922.87274848
626.04; 3930.7089; 806924.16474952
627.06; 3818.7644; 810811.50215697
628.08; 3753.017; 814631.91153613
629.10; 3733.1119; 818432.05835859
630.12; 3764.2124; 822263.86414255
631.13; 3852.5136; 826185.55678926
632.15; 4000.6222; 830258.01757484
633.17; 4204.0467; 834537.55575129
634.19; 4449.5558; 839067.01151357
635.21; 4715.5994; 843867.28821337
636.22; 4974.5295; 848931.14454024
637.24; 5196.0676; 854220.51716828
638.26; 5351.3559; 859667.96650442
639.28; 5416.9218; 865182.1591898
640.29; 5377.9534; 870656.68366247
641.31; 5230.3773; 875980.98208363
642.33; 4981.3963; 881051.82858364
643.35; 4648.3647; 885783.66325523
644.37; 4256.1756; 890116.26637589
645.38; 3833.6293; 894018.73552643
646.40; 3409.4707; 897489.42952993
647.42; 3008.8454; 900552.30429979
648.44; 2650.7834; 903250.68744652
649.46; 2347.0248; 905639.85745733
650.47; 2102.1415; 907779.74679008
651.49; 1914.6134; 909728.74064724
652.51; 1778.384; 911539.0588107
653.53; 1684.4741; 913253.78071152
654.55; 1622.4302; 914905.34462115
655.56; 1581.6044; 916515.34965718
656.58; 1552.399; 918095.62484179
657.60; 1527.5874; 919650.6429369
658.62; 1503.656; 921181.29982789
659.64; 1481.8847; 922689.79454993
660.65; 1468.7334; 924184.90175095
661.67; 1475.1182; 925686.50844004
662.69; 1514.4064; 927228.10884055
663.71; 1599.3472; 928856.17523184
664.73; 1738.5765; 930625.97109903
665.74; 1933.6088; 932594.30137108
666.76; 2177.2311; 934810.62870318
667.78; 2453.9178; 937308.61108366
668.80; 2742.3389; 940100.19374744
669.82; 3019.4281; 943173.84130776
670.83; 3264.9797; 946497.44974013
671.85; 3465.5472; 950025.22724412
672.87; 3616.581; 953706.75059229
673.89; 3722.2296; 957495.81973847
674.91; 3792.901; 961356.82925774
675.92; 3841.3165; 965267.12370446
676.94; 3878.2149; 969214.97917012
677.96; 3908.9313; 973194.10257429
678.98; 3931.7905; 977196.49568616
680.00; 3938.7006; 981205.92295149
681.01; 3917.6865; 985193.95879245
682.03; 3856.5671; 989119.77764605
683.05; 3746.6958; 992933.75226991
684.07; 3585.7348; 996583.87553527
685.08; 3378.7677; 1000023.3152816
686.10; 3137.5691; 1003217.2251913
687.12; 2878.3635; 1006147.2749828
688.14; 2618.7831; 1008813.0831332
689.16; 2374.8623; 1011230.5905018
690.17; 2158.7904; 1013428.145984
691.19; 1977.833; 1015441.4946179
692.21; 1834.4555; 1017308.8911728
693.23; 1727.3522; 1019067.2611473
694.25; 1652.9008; 1020749.8428272
695.26; 1606.558; 1022385.2495793
696.28; 1583.8527; 1023997.5433219
697.30; 1580.8558; 1025606.786303
698.32; 1594.2146; 1027229.6279926
699.34; 1620.9688; 1028879.7042737
700.35; 1658.379; 1030567.8625201
701.37; 1703.9185; 1032302.378049
702.39; 1755.4436; 1034089.3438516
703.41; 1811.4367; 1035933.308278
704.43; 1871.1594; 1037838.067826
705.44; 1934.5729; 1039807.3795628
706.46; 2001.9827; 1041845.3115374
707.48; 2073.4848; 1043956.0295489
708.50; 2148.3941; 1046143.0020394
709.52; 2224.8722; 1048407.8259563
710.53; 2299.9268; 1050749.0521514
711.55; 2369.8434; 1053161.4504242
712.57; 2430.9698; 1055636.0727791
713.59; 2480.6528; 1058161.2703152
714.61; 2518.0709; 1060724.5578803
715.62; 2544.7299; 1063314.983059
716.64; 2564.4797; 1065925.5127755
717.66; 2583.0408; 1068554.9368568
718.68; 2607.1407; 1071208.8935441
719.70; 2643.4398; 1073899.8011734
720.71; 2697.4348; 1076645.6733766
721.73; 2772.4961; 1079467.9547594
722.75; 2869.1471; 1082388.6227078
723.77; 2984.6547; 1085426.8723769
724.79; 3112.9926; 1088595.764484
725.80; 3245.2481; 1091899.2870559
726.82; 3370.5375; 1095330.3487676
727.84; 3477.4406; 1098870.2332692
728.86; 3555.8495; 1102489.9346214
729.88; 3598.9568; 1106153.5173336
730.89; 3604.9614; 1109823.2124642
731.91; 3578.0019; 1113465.4639587
732.93; 3527.9176; 1117056.7318132
733.95; 3468.6932; 1120587.7117951
734.96; 3415.8141; 1124064.8631003
735.98; 3383.1337; 1127508.7472601
737.00; 3380.0898; 1130949.5328688
738.02; 3410.0882; 1134420.8554558
739.04; 3470.5735; 1137953.7494986
740.05; 3554.7899; 1141572.3721963
741.07; 3654.6662; 1145292.6646672
742.09; 3763.8495; 1149124.1010543
743.11; 3879.8152; 1153073.5855116
744.13; 4004.2712; 1157149.7607901
745.14; 4141.669; 1161365.8010745
746.16; 4296.3339; 1165739.2835451
747.18; 4469.2783; 1170288.8159473
748.20; 4655.9469; 1175028.3690027
749.22; 4845.8711; 1179961.2566356
750.23; 5024.5521; 1185076.033837
751.25; 5177.081; 1190346.0789227
752.27; 5292.3192; 1195733.4314542
753.29; 5366.1791; 1201195.9702101
754.31; 5402.7781; 1206695.7651458
755.32; 5412.9246; 1212205.8888439
756.34; 5410.3165; 1217713.3575841
757.36; 5406.651; 1223217.0949819
758.38; 5407.2836; 1228721.4763268
759.40; 5408.9521; 1234227.5561672
760.41; 5400.4392; 1239724.9701847
761.43; 5366.0865; 1245187.4147226
762.45; 5291.1238; 1250573.5504525
763.47; 5167.1473; 1255833.4833982
764.49; 4995.9967; 1260919.1924744
765.50; 4790.7531; 1265795.9723639
766.52; 4573.4602; 1270451.557499
767.54; 4370.1759; 1274900.2079697
768.56; 4204.7561; 1279180.4682072
769.58; 4093.1345; 1283347.1025352
770.59; 4039.6776; 1287459.320048
771.61; 4036.5523; 1291568.3560706
772.63; 4066.1587; 1295707.5301981
773.65; 4105.8287; 1299887.0866128
774.67; 4133.4203; 1304094.7300896
775.68; 4132.3049; 1308301.238111
776.70; 4094.5351; 1312469.298128
777.72; 4021.5908; 1316563.1040208
778.74; 3922.8076; 1320556.3528998
779.75; 3812.1912; 1324436.9990873
780.77; 3704.6486; 1328208.1715238
781.79; 3612.6645; 1331885.7080896
782.81; 3544.1659; 1335493.5160363
783.83; 3501.8704; 1339058.2690406
784.84; 3483.963; 1342604.7929909
785.86; 3485.621; 1346153.0047513
786.88; 3500.788; 1349716.6558226
787.90; 3523.6706; 1353303.600473
788.92; 3549.6549; 1356916.9959686
789.93; 3575.5921; 1360556.7944467
790.95; 3599.6197; 1364221.0519659
791.97; 3620.7809; 1367906.8506471
792.99; 3638.6923; 1371610.8823782
794.01; 3653.4; 1375329.8858998
795.02; 3665.4232; 1379061.128594
796.04; 3675.8694; 1382803.0050358
797.06; 3686.4519; 1386555.6540164
798.08; 3699.2749; 1390321.3561919
799.10; 3716.3425; 1394104.4324973
800.11; 3738.878; 1397910.4489613
801.13; 3766.6446; 1401744.7306639
802.15; 3797.517; 1405610.4390511
803.17; 3827.5209; 1409506.6901824
804.19; 3851.4528; 1413427.3029346
805.20; 3864.0183; 1417360.7068323
806.22; 3861.2544; 1421291.2971558
807.24; 3841.8616; 1425202.1465165
808.26; 3808.0389; 1429078.5658256
809.28; 3765.4982; 1432911.6804562
810.29; 3722.5409; 1436701.0664346
811.31; 3688.3448; 1440455.6423231
812.33; 3670.8599; 1444192.419328
813.35; 3674.8646; 1447933.2729205
814.37; 3700.7248; 1451700.4511237
815.38; 3744.2198; 1455511.9053002
816.40; 3797.5001; 1459377.5965093
817.42; 3850.9209; 1463297.667786
818.44; 3895.2478; 1467262.8619678
819.46; 3923.6508; 1471256.9691395
820.47; 3933; 1475260.5934641
821.49; 3924.2183; 1479255.2783127
822.51; 3901.7298; 1483227.070842
823.53; 3872.2839; 1487168.8887506
824.55; 3843.5395; 1491081.446135
825.56; 3822.7685; 1494972.8594658
826.58; 3815.9067; 1498857.2878314
827.60; 3827.0283; 1502753.0374493
828.62; 3858.2036; 1506680.5221806
829.63; 3909.667; 1510660.3945068
830.65; 3980.2367; 1514712.1037311
831.67; 4067.9577; 1518853.1090803
832.69; 4170.9287; 1523098.9345237
833.71; 4288.2056; 1527464.1427854
834.72; 4420.58; 1531964.1024655
835.74; 4570.9803; 1536617.1631241
836.76; 4744.2837; 1541446.639225
837.78; 4946.4919; 1546481.9545373
838.80; 5183.4545; 1551758.4875057
839.81; 5459.5353; 1557316.0588425
840.83; 5776.6877; 1563196.4776535
841.85; 6134.2785; 1569440.90851
842.87; 6529.6966; 1576087.8579076
843.89; 6959.4113; 1583172.2383172
844.90; 7419.8767; 1590725.3526339
845.92; 7907.6509; 1598774.9999857
846.94; 8418.3723; 1607344.5397545
847.96; 8944.7339; 1616449.8928358
848.98; 9474.128; 1626094.1463343
849.99; 9986.9841; 1636260.4651619
851.01; 10456.79; 1646905.0264563
852.03; 10852.362; 1657952.2622072
853.05; 11142.188; 1669294.5286334
854.07; 11299.94; 1680797.3796218
855.08; 11309.693; 1692310.1589514
856.10; 11169.382; 1703680.1076499
857.12; 10891.437; 1714767.120892
858.14; 10500.378; 1725456.0528585
859.16; 10028.022; 1735664.1464489
860.17; 9507.6583; 1745342.5323639
861.19; 8968.7613; 1754472.3443677
862.21; 8433.5342; 1763057.3182513
863.23; 7915.9236; 1771115.3868411
864.25; 7422.9306; 1778671.6099256
865.26; 6957.3836; 1785753.9261784
866.28; 6521.0103; 1792392.0332246
867.30; 6116.7388; 1798618.6094122
868.32; 5749.5691; 1804471.4227017
869.34; 5425.9252; 1809994.780462
870.35; 5151.9106; 1815239.2031199
871.37; 4931.191; 1820258.9427771
872.39; 4763.2674; 1825107.7434253
873.41; 4642.7061; 1829833.8179331
874.42; 4559.5713; 1834475.2647645
875.44; 4500.9581; 1839057.0458742
876.46; 4453.2556; 1843590.267943
877.48; 4404.61; 1848073.9708112
878.50; 4347.0279; 1852499.0575817
879.51; 4277.6453; 1856853.5158744
880.53; 4198.8602; 1861127.7743734
881.55; 4117.2754; 1865318.983044
882.57; 4041.673; 1869433.2317476
883.59; 3980.4974; 1873485.2063741
884.60; 3939.4814; 1877495.4284884
885.62; 3920.0519; 1881485.8721298
886.64; 3918.9636; 1885475.207942
887.66; 3929.2647; 1889475.0298687
888.68; 3942.2896; 1893488.110531
889.69; 3950.0429; 1897509.083704
890.71; 3947.2076; 1901527.170665
891.73; 3932.1414; 1905529.9209407
892.75; 3906.5907; 1909506.6617218
893.77; 3874.3159; 1913450.5481685
894.78; 3839.2149; 1917358.7033016
895.80; 3803.6919; 1921230.6975585
896.82; 3767.8858; 1925066.2426739
897.84; 3729.9936; 1928863.2151882
898.86; 3687.4629; 1932616.893314
899.87; 3638.4683; 1936320.6970664
900.89; 3582.9922; 1939968.0285361
901.91; 3523.0295; 1943554.3205123
902.93; 3461.8448; 1947078.3291132
903.95; 3402.6461; 1950542.0759683
904.96; 3347.3031; 1953949.4860553
905.98; 3295.7177; 1957304.3844564
907.00; 3246.1493; 1960608.8244063
908.02; 3196.3531; 1963862.5739108
909.04; 3145.0013; 1967064.0495667
910.05; 3092.7116; 1970212.2965556
911.07; 3042.1654; 1973309.0896251
912.09; 2997.2081; 1976360.1181429
913.11; 2961.2887; 1979374.582224
914.13; 2935.9117; 1982363.2136565
915.14; 2919.7975; 1985335.4415214
916.16; 2909.1486; 1988296.8292632
917.18; 2898.9425; 1991247.82765
918.20; 2884.7156; 1994184.3436151
919.22; 2864.0801; 1997099.8535223
920.23; 2837.3283; 1999988.1312616
921.25; 2806.8769; 2002845.4107785
922.27; 2775.819; 2005671.074787
923.29; 2746.2515; 2008466.6403274
924.30; 2718.1497; 2011233.5994097
925.32; 2689.329; 2013971.2202521
926.34; 2656.5521; 2016675.4756585
927.36; 2617.3308; 2019339.8054254
928.38; 2571.6474; 2021957.6314724
929.39; 2522.8288; 2024525.7623554
930.41; 2477.1361; 2027047.3800177
931.43; 2442.1502; 2029533.3835631
932.45; 2424.5182; 2032001.4384586
933.47; 2427.8735; 2034472.9088869
934.48; 2451.6696; 2036968.6027543
935.50; 2491.3056; 2039504.6443158
936.52; 2539.4359; 2042089.6804913
937.54; 2587.9472; 2044724.0990318
938.56; 2629.8997; 2047401.2234484
939.57; 2660.8318; 2050109.835391
940.59; 2679.1309; 2052837.0750851
941.61; 2685.5514; 2055570.8504782
942.63; 2682.2384; 2058301.2533798
943.65; 2671.7147; 2061020.9436396
944.66; 2656.1815; 2063724.8217775
945.68; 2637.2676; 2066409.4464314
946.70; 2616.1388; 2069072.5628081
947.72; 2593.7497; 2071712.8880691
948.74; 2571.0282; 2074330.0838651
949.75; 2548.8854; 2076924.7392604
950.77; 2528.083; 2079498.2186235
951.79; 2509.078; 2082052.3517949
952.81; 2491.9708; 2084589.0705716
953.83; 2476.607; 2087110.1496748
954.84; 2462.7915; 2089617.1651901
955.86; 2450.5021; 2092111.6706227
956.88; 2439.9918; 2094595.4769612
957.90; 2431.7278; 2097070.8709275
958.92; 2426.2018; 2099540.6396696
959.93; 2423.7058; 2102007.8675553
960.95; 2424.1793; 2104475.5774941
961.97; 2427.1904; 2106946.3525492
962.99; 2432.0463; 2109422.0706903
964.01; 2437.9838; 2111903.8329657
965.02; 2444.3786; 2114392.1049416
966.04; 2450.9452; 2116887.0613437
967.06; 2457.9357; 2119389.1338572
968.08; 2466.3635; 2121899.7855006
969.09; 2478.2394; 2124422.5262742
970.11; 2496.7508; 2126964.1108946
971.13; 2526.2539; 2129535.7283265
972.15; 2571.9484; 2132153.8607864
973.17; 2639.1877; 2134840.4399569
974.18; 2732.5203; 2137622.0277084
975.20; 2854.7168; 2140528.0062205
976.22; 3006.1206; 2143588.1072875
977.24; 3184.6164; 2146829.9093273
978.26; 3386.3215; 2150277.0385205
979.27; 3606.8319; 2153948.6377917
980.29; 3842.5921; 2157860.2307422
981.31; 4091.8342; 2162025.5414267
982.33; 4354.6108; 2166458.3473544
983.35; 4631.7353; 2171173.2540504
984.36; 4922.8552; 2176184.5081949
985.38; 5224.2668; 2181502.5863778
986.40; 5527.2862; 2187129.1251994
987.42; 5817.9153; 2193051.5119064
988.44; 6078.19; 2199238.847052
989.45; 6289.0626; 2205640.8413789
990.47; 6434.1397; 2212190.5179336
991.49; 6503.2531; 2218810.5489213
992.51; 6494.8148; 2225421.9901476
993.53; 6416.2281; 2231953.4334817
994.54; 6282.1898; 2238348.4316166
995.56; 6111.352; 2244569.5241985
996.58; 5922.2925; 2250598.1624035
997.60; 5729.9257; 2256430.9795544
998.62; 5543.3016; 2262073.8214255
999.63; 5365.2693; 2267535.4340135
1000.65; 5193.8809; 2272822.5805952
1001.67; 5024.8916; 2277937.7034606
1002.69; 4854.4368; 2282879.3106614
1003.71; 4681.0165; 2287644.3834501
1004.72; 4506.2519; 2292231.553387
1005.74; 4334.3526; 2296643.7372946
1006.76; 4170.6795; 2300889.3090254
1007.78; 4020.0428; 2304981.5391409
1008.80; 3885.3748; 2308936.6830118
1009.81; 3767.181; 2312771.5106805
1010.83; 3663.8278; 2316501.129312
1011.85; 3572.4032; 2320137.6816255
1012.87; 3489.7181; 2323690.0640178
1013.89; 3413.0462; 2327164.3978032
1014.90; 3340.3891; 2330564.7698116
1015.92; 3270.3022; 2333893.796367
1016.94; 3201.516; 2337152.8015498
1017.96; 3132.6448; 2340341.6987922
1018.97; 3062.187; 2343458.8730425
1019.99; 2988.8407; 2346501.3838618
1021.01; 2911.9748; 2349465.6485253
1022.03; 2832.006; 2352348.5084557
1023.05; 2750.466; 2355148.3641978
1024.06; 2669.6897; 2357865.9931572
1025.08; 2592.2343; 2360504.775828
1026.10; 2520.2645; 2363070.2963645
1027.12; 2455.1533; 2365569.5365279
1028.14; 2397.4401; 2368010.0271322
1029.15; 2347.1155; 2370399.2894561
1030.17; 2304.0443; 2372744.7071636
1031.19; 2268.2728; 2375053.7110282
1032.21; 2240.0267; 2377333.9615051
1033.23; 2219.3645; 2379593.1787782
1034.24; 2205.6378; 2381838.4228915
1035.26; 2197.0317; 2384074.9063277
1036.28; 2190.4643; 2386304.7044589
1037.30; 2181.9985; 2388525.8847986
1038.32; 2167.7136; 2390732.5237313
1039.33; 2144.7884; 2392915.8257944
1040.35; 2112.4384; 2395066.196879
1041.37; 2072.3768; 2397175.7870721
1042.39; 2028.6245; 2399240.8392506
1043.41; 1986.7081; 2401263.2223804
1044.42; 1952.4912; 2403250.7741801
1045.44; 1930.9838; 2405216.4323217
1046.46; 1925.4611; 2407176.4686655
1047.48; 1937.0936; 2409148.3463985
1048.50; 1965.1084; 2411148.7419564
1049.51; 2007.3425; 2413192.130045
1050.53; 2060.9563; 2415290.0946068
1051.55; 2123.0773; 2417451.2956472
1052.57; 2191.2253; 2419681.8684503
1053.59; 2263.4785; 2421985.9918762
1054.60; 2338.4397; 2424366.4225796
1055.62; 2415.1154; 2426824.9058048
1056.64; 2492.8172; 2429362.4861265
1057.66; 2571.1559; 2431979.8118565
1058.68; 2650.138; 2434677.5379431
1059.69; 2730.3239; 2437456.8898343
1060.71; 2812.972; 2440320.3738993
1061.73; 2900.0808; 2443272.5310026
1062.75; 2994.2518; 2446320.5501253
1063.76; 3098.3238; 2449474.5100923
1064.78; 3214.7857; 2452747.023257
1065.80; 3345.0484; 2456152.1381763
1066.82; 3488.7442; 2459703.5292042
1067.84; 3643.2902; 2463412.2414567
1068.85; 3803.9633; 2467284.5119354
1069.87; 3964.6541; 2471320.3586883
1070.89; 4119.2893; 2475513.6174914
1071.91; 4263.6619; 2479853.841314
1072.93; 4397.1713; 2484329.9719168
1073.94; 4523.8521; 2488935.0581332
1074.96; 4652.137; 2493670.7328929
1075.98; 4793.101; 2498549.9028622
1077.00; 4957.4046; 2503596.3268679
1078.02; 5151.6632; 2508840.4976664
1079.03; 5375.3235; 2514312.3450558
1080.05; 5619.181; 2520032.4288142
1081.07; 5866.3228; 2526004.0922699
1082.09; 6095.6139; 2532209.1642313
1083.11; 6287.0235; 2538609.0828483
1084.12; 6427.3966; 2545151.8951828
1085.14; 6514.9621; 2551783.8454307
1086.16; 6561.0767; 2558462.7384033
1087.18; 6588.4211; 2565169.4667448
1088.20; 6625.8876; 2571914.3344047
1089.21; 6701.4198; 2578736.0905907
1090.23; 6834.7496; 2585693.5707327
1091.25; 7032.1072; 2592851.9524129
1092.27; 7284.488; 2600267.2468076
1093.29; 7570.0899; 2607973.2716791
1094.30; 7860.3716; 2615974.790729
1095.32; 8128.1531; 2624248.8997981
1096.34; 8355.589; 2632754.5288731
1097.36; 8539.8283; 2641447.7055833
1098.38; 8694.7432; 2650298.5789866
1099.39; 8848.0994; 2659305.562407
1100.41; 9034.6997; 2668502.4968378
1101.43; 9287.0903; 2677956.3540018
1102.45; 9626.1226; 2687755.3313886
1103.47; 10053.841; 2697989.7080146
1104.48; 10550.764; 2708729.930193
1105.50; 11078.669; 2720007.5367395
1106.52; 11588.713; 2731804.3460389
1107.54; 12033.304; 2744053.7301894
1108.56; 12379.038; 2756655.0562768
1109.57; 12617.45; 2769499.0754505
1110.59; 12770.608; 2782499.0031654
1111.61; 12889.64; 2795620.1001732
1112.63; 13045.993; 2808900.3578407
1113.64; 13317.115; 2822456.6058436
1114.66; 13769.783; 2836473.6504298
1115.68; 14445.054; 2851178.0921468
1116.70; 15348.477; 2866802.1793995
1117.72; 16447.879; 2883545.4107791
1118.73; 17679.102; 2901541.9733745
1119.75; 18958.052; 2920840.4519542
1120.77; 20196.004; 2941399.1127285
1121.79; 21314.545; 2963096.3998542
1122.81; 22257.035; 2985753.1008005
1123.82; 22994.687; 3009160.6996887
1124.84; 23526.869; 3033110.0370999
1125.86; 23876.541; 3057415.3259241
1126.88; 24082.519; 3081930.2908914
1127.90; 24190.403; 3106555.0776162
1128.91; 24243.731; 3131234.1496144
1129.93; 24276.405; 3155946.4826835
1130.95; 24307.099; 3180690.0610169
1131.97; 24336.116; 3205463.1765173
1132.99; 24345.122; 3230245.4599995
1134.00; 24300.061; 3254981.8730784
1135.02; 24157.173; 3279572.8329176
1136.04; 23871.472; 3303872.9617508
1137.06; 23406.267; 3327699.5314526
1138.08; 22741.778; 3350849.6803752
1139.09; 21880.793; 3373123.3833491
1140.11; 20849.805; 3394347.5849832
1141.13; 19695.168; 3414396.4159158
1142.15; 18475.08; 3433203.2503937
1143.17; 17249.355; 3450762.3495685
1144.18; 16069.49; 3467120.3967182
1145.20; 14971.368; 3482360.6030909
1146.22; 13972.062; 3496583.5594579
1147.24; 13070.985; 3509889.2585193
1148.26; 12254.464; 3522363.7737951
1149.27; 11502.066; 3534072.3805727
1150.29; 10792.871; 3545059.0571168
1151.31; 10110.265; 3555350.8704131
1152.33; 9444.5852; 3564965.0505717
1153.35; 8793.6448; 3573916.6015057
1154.36; 8161.6828; 3582224.8423997
1155.38; 7557.4325; 3589917.9825703
1156.40; 6991.8835; 3597035.4182735
1157.42; 6476.074; 3603627.7821599
1158.43; 6019.0577; 3609754.9232086
1159.45; 5626.1408; 3615482.0917875
1160.47; 5297.5621; 3620874.7814327
1161.49; 5027.8985; 3625992.9650937
1162.51; 4806.4896; 3630885.7640615
1163.52; 4619.0255; 3635587.7327218
1164.54; 4450.136; 3640117.7790946
1165.56; 4286.4728; 3644481.2233892
1166.58; 4119.5289; 3648674.7260106
1167.60; 3947.4083; 3652693.0173217
1168.61; 3774.9967; 3656535.8010154
1169.63; 3612.4195; 3660213.0882196
1170.65; 3472.1783; 3663747.615928
1171.67; 3365.7519; 3667173.8061421
1172.69; 3300.6149; 3670533.6896668
1173.70; 3278.4931; 3673871.0541265
1174.72; 3295.2989; 3677225.5262178
1175.74; 3342.6842; 3680628.2344965
1176.76; 3410.6742; 3684100.1536302
1177.78; 3490.5494; 3687653.3823313
1178.79; 3577.1032; 3691294.7189919
1179.81; 3669.6235; 3695030.237315
1180.83; 3771.3581; 3698869.3170988
1181.85; 3887.6826; 3702826.810219
1182.87; 4023.5731; 3706922.6339792
1183.88; 4181.1728; 3711178.8875135
1184.90; 4358.1908; 3715615.3377152
1185.92; 4547.603; 3720244.6012951
1186.94; 4738.7365; 3725068.4306059
1187.96; 4919.4192; 3730076.187072
1188.97; 5078.5864; 3735245.9688878
1189.99; 5208.6374; 3740548.1369895
1191.01; 5306.9262; 3745950.3588893
1192.03; 5376.0279; 3751422.9233511
1193.05; 5422.7465; 3756943.0453063
1194.06; 5456.1403; 3762497.1607001
1195.08; 5485.0554; 3768080.7104571
1196.10; 5515.7423; 3773695.4980744
1197.12; 5550.0833; 3779345.2434023
1198.14; 5584.8128; 3785030.3418048
1199.15; 5611.8968; 3790743.0105844
1200.17; 5620.0138; 3796463.9421134
1201.19; 5596.8559; 3802161.299936
1202.21; 5531.8022; 3807792.4358384
1203.22; 5418.4147; 3813308.1481907
1204.24; 5256.2146; 3818658.7478323
1205.26; 5051.3135; 3823800.7670159
1206.28; 4815.71; 3828702.9519446
1207.30; 4565.3609; 3833350.2923836
1208.31; 4317.4427; 3837745.2627053
1209.33; 4087.4301; 3841906.0901616
1210.35; 3886.6836; 3845862.5663304
1211.37; 3721.0974; 3849650.4829438
1212.39; 3591.0718; 3853306.0390291
1213.40; 3492.6975; 3856861.4543698
1214.42; 3419.7128; 3860342.5744243
1215.44; 3365.6023; 3863768.6123131
1216.46; 3325.2291; 3867153.5520789
1217.48; 3295.5991; 3870508.3297201
1218.49; 3275.6795; 3873842.8301475
1219.51; 3265.5185; 3877166.9870327
1220.53; 3265.1162; 3880490.7344591
1221.55; 3273.5381; 3883823.0550187
1222.57; 3288.6138; 3887170.7219097
1223.58; 3307.3203; 3890537.4313042
1224.60; 3326.6853; 3893923.8533646
1225.62; 3344.8602; 3897328.7767102
1226.64; 3361.9701; 3900751.1171937
1227.66; 3380.4246; 3904192.2435641
1228.67; 3404.5523; 3907657.9309174
1229.69; 3439.6165; 3911159.3121386
1230.71; 3490.433; 3914712.4222825
1231.73; 3559.9045; 3918336.2514
1232.75; 3647.8086; 3922049.5631681
1233.76; 3750.1348; 3925867.0385497
1234.78; 3859.1825; 3929795.5198424
1235.80; 3964.5125; 3933831.2224953
1236.82; 4054.6814; 3937958.7132067
1237.84; 4119.5085; 3942152.195096
1238.85; 4152.4371; 3946379.1968831
1239.87; 4152.4306; 3950606.1920463
1240.89; 4124.8412; 3954805.1023817
1241.91; 4080.8608; 3958959.2425737
1242.93; 4035.4997; 3963067.2071798
1243.94; 4004.4659; 3967143.5806662
1244.96; 4000.6997; 3971216.1202782
1245.98; 4031.5113; 3975320.0248195
1247.00; 4097.1634; 3979490.7603621
1248.02; 4191.3411; 3983757.3647024
1249.03; 4303.3715; 3988138.0111784
1250.05; 4421.491; 3992638.8982019
1251.07; 4536.125; 3997256.4777159
1252.09; 4642.1786; 4001982.0152429
1253.10; 4739.7273; 4006806.8530591
1254.12; 4833.0991; 4011726.7393885
1255.14; 4928.9118; 4016744.1589362
1256.16; 5033.9363; 4021868.4888246
1257.18; 5153.593; 4027114.6240828
1258.19; 5291.4885; 4032501.1310802
1259.21; 5449.8611; 4038048.854503
1260.23; 5630.3801; 4043780.3384963
1261.25; 5834.6284; 4049719.7384144
1262.27; 6063.8315; 4055892.457211
1263.28; 6317.8698; 4062323.7760427
1264.30; 6594.0758; 4069036.2606697
1265.32; 6886.5542; 4076046.4757229
1266.34; 7186.6429; 4083362.1681204
1267.36; 7484.7092; 4090981.2791451
1268.37; 7772.9396; 4098893.7962754
1269.39; 8048.3656; 4107086.6851227
1270.41; 8315.2408; 4115551.2414305
1271.43; 8586.0663; 4124291.4863987
1272.45; 8880.9276; 4133331.8874818
1273.46; 9225.1886; 4142722.7313447
1274.48; 9645.8443; 4152541.7846118
1275.50; 10166.972; 4162891.322936
1276.52; 10804.823; 4173890.1669947
1277.54; 11563.328; 4185661.1364009
1278.55; 12431.078; 4198315.4371404
1279.57; 13381.167; 4211936.8882307
1280.59; 14375.194; 4226570.2153761
1281.61; 15372.002; 4242218.2500972
1282.63; 16340.394; 4258852.0665012
1283.64; 17273.233; 4276435.4724603
1284.66; 18198.858; 4294961.1249202
1285.68; 19185.306; 4314490.9382392
1286.70; 20333.974; 4335190.0465927
1287.72; 21762.178; 4357343.0050091
1288.73; 23577.686; 4381344.0722312
1289.75; 25851.632; 4407659.9175684
1290.77; 28597.693; 4436771.1354712
1291.79; 31764.302; 4469105.8242956
1292.81; 35242.856; 4504981.5313555
1293.82; 38889.704; 4544569.5722461
1294.84; 42554.77; 4587888.4919065
1295.86; 46107.174; 4634823.60525
1296.88; 49449.15; 4685160.7065297
1297.89; 52513.934; 4738617.6248412
1298.91; 55249.538; 4794859.2704303
1299.93; 57596.182; 4853489.6980049
1300.95; 59468.103; 4914025.6610276
1301.97; 60749.379; 4975865.9077882
1302.98; 61308.254; 5038275.0647756
1304.00; 61027.267; 5100398.1896474
1305.02; 59839.838; 5161312.5625191
1306.04; 57760.528; 5220110.2878587
1307.06; 54897.473; 5275993.5461507
1308.07; 51441.03; 5328358.2947839
1309.09; 47630.687; 5376844.2789583
1310.11; 43709.652; 5421338.8184063
1311.13; 39880.708; 5461935.657859
1312.15; 36276.302; 5498863.3681675
1313.16; 32950.764; 5532405.8235652
1314.18; 29894.948; 5562837.590849
1315.20; 27066.311; 5590389.9278874
1316.22; 24422.921; 5615251.4080688
1317.24; 21949.749; 5637595.3049661
1318.25; 19669.394; 5657617.8996954
1319.27; 17635.637; 5675570.217309
1320.29; 15914.323; 5691770.3114309
1321.31; 14560.055; 5706591.819183
1322.33; 13597.628; 5720433.6176931
1323.34; 13014.408; 5733681.7239078
1324.36; 12765.204; 5746676.1504658
1325.38; 12786.493; 5759692.2490368
1326.40; 13013.907; 5772939.8447548
1327.42; 13396.395; 5786576.7967811
1328.43; 13902.519; 5800728.9609321
1329.45; 14517.655; 5815507.3068898
1330.47; 15234.307; 5831015.1736776
1331.49; 16039.925; 5847343.1252619
1332.51; 16907.037; 5864553.7589978
1333.52; 17789.202; 5882662.3993949
1334.54; 18624.021; 5901620.8487862
1335.56; 19342.002; 5921310.1722089
1336.58; 19878.455; 5941545.5820851
1337.60; 20184.958; 5962092.9983769
1338.61; 20237.499; 5982693.8994705
1339.63; 20039.629; 6003093.3766409
1340.65; 19620.373; 6023066.0696216
1341.67; 19027.899; 6042435.6500753
1342.69; 18320.608; 6061085.2384191
1343.70; 17557.545; 6078958.0610908
1344.72; 16789.825; 6096049.3786077
1345.74; 16054.352; 6112392.0161359
1346.76; 15370.604; 6128038.6276412
1347.77; 14740.788; 6143044.1132496
1348.79; 14153.134; 6157451.3930784
1349.81; 13587.645; 6171283.0296042
1350.83; 13023.148; 6184540.0324284
1351.85; 12444.217; 6197207.7083753
1352.86; 11846.449; 6209266.8824651
1353.88; 11238.848; 6220707.5447037
1354.90; 10642.662; 6231541.3149577
1355.92; 10086.86; 6241809.3027232
1356.94; 9601.2961; 6251583.0078575
1357.95; 9209.273; 6260957.650411
1358.97; 8921.4508; 6270039.3023308
1359.99; 8732.7666; 6278928.8819336
1361.01; 8623.2456; 6287706.9738345
1362.03; 8562.5386; 6296423.2686231
1363.04; 8516.9942; 6305093.2011628
1364.06; 8457.3723; 6313702.4412011
1365.08; 8365.1578; 6322217.8109125
1366.10; 8235.874; 6330601.5752162
1367.12; 8078.6913; 6338825.3343015
1368.13; 7912.6965; 6346880.1178512
1369.15; 7761.0899; 6354780.5724213
1370.17; 7645.0531; 6362562.9065299
1371.19; 7578.9481; 6370277.9486076
1372.21; 7567.939; 6377981.7839796
1373.22; 7608.2913; 6385726.6962113
1374.24; 7689.79; 6393554.5705525
1375.26; 7799.1915; 6401493.8109148
1376.28; 7923.5128; 6409559.6049966
1377.30; 8052.2543; 6417756.4523825
1378.31; 8178.19; 6426081.4968999
1379.33; 8296.9182; 6434527.4015944
1380.35; 8405.7513; 6443084.0937309
1381.37; 8502.6251; 6451739.3991808
1382.39; 8585.5333; 6460479.1015949
1383.40; 8652.6576; 6469287.1336571
1384.42; 8703.0109; 6478146.4231606
1385.44; 8737.185; 6487040.5004223
1386.46; 8757.7593; 6495955.5214948
1387.48; 8769.0729; 6504882.059271
1388.49; 8776.3187; 6513815.9729688
1389.51; 8784.1856; 6522757.8948256
1390.53; 8795.4564; 6531711.2898814
1391.55; 8810.026; 6540679.5162008
1392.56; 8824.7161; 6549662.6964201
1393.58; 8834.0657; 6558655.39407
1394.60; 8832.0194; 6567646.0087144
1395.62; 8814.1792; 6576618.4628388
1396.64; 8780.0859; 6585556.2114189
1397.65; 8734.9126; 6594447.9755114
1398.67; 8690.0121; 6603294.0328413
1399.69; 8661.9729; 6612111.5474637
1400.71; 8670.1758; 6620937.4122538
1401.73; 8733.2316; 6629827.4651716
1402.74; 8865.021; 6638851.6740323
1403.76; 9071.2459; 6648085.8108812
1404.78; 9347.368; 6657601.028162
1405.80; 9678.5399; 6667453.3640972
1406.82; 10041.682; 6677675.3633963
1407.83; 10409.357; 6688271.6396073
1408.85; 10754.647; 6699219.4060891
1409.87; 11056.023; 6710473.960073
1410.89; 11301.178; 6721978.0716
1411.91; 11489.062; 6733673.4411116
1412.92; 11629.727; 6745512.0016095
1413.94; 11742.05; 6757464.9022801
1414.96; 11849.785; 6769527.4722643
1415.98; 11976.68; 6781719.2161625
1417.00; 12141.564; 6794078.8038948
1418.01; 12354.305; 6806654.9534798
1419.03; 12613.483; 6819494.9351404
1420.05; 12906.32; 6832633.0119769
1421.07; 13211.093; 6846081.3344601
1422.09; 13501.72; 6859825.5027276
1423.10; 13753.68; 6873826.1554483
1424.12; 13949.97; 6888026.6231595
1425.14; 14085.593; 6902365.1494509
1426.16; 14169.243; 6916788.8273132
1427.18; 14221.457; 6931265.6570369
1428.19; 14269.45; 6945791.3412608
1429.21; 14339.839; 6960388.6781805
1430.23; 14451.269; 6975099.4467345
1431.25; 14609.159; 6989970.9397311
1432.27; 14804.296; 7005041.0744659
1433.28; 15015.941; 7020326.6539415
1434.30; 15218.612; 7035818.5440998
1435.32; 15390.52; 7051485.4293344
1436.34; 15520.904; 7067285.0395304
1437.36; 15613.814; 7083179.2279139
1438.37; 15687.003; 7099147.9204155
1439.39; 15766.266; 7115197.298635
1440.41; 15877.175; 7131359.5771942
1441.43; 16037.18; 7147684.7339307
1442.44; 16250.929; 7164227.4781722
1443.46; 16510.539; 7181034.4948387
1444.48; 16800.681; 7198136.8630902
1445.50; 17106.447; 7215550.4878178
1446.52; 17420.803; 7233284.1139667
1447.53; 17748.424; 7251351.2441825
1448.55; 18104.007; 7269780.3424672
1449.57; 18505.297; 7288617.9361185
1450.59; 18963.223; 7307921.6791064
1451.61; 19472.941; 7327744.2927217
1452.62; 20009.53; 7348113.1303204
1453.64; 20530.624; 7369012.4197958
1454.66; 20985.767; 7390375.0254235
1455.68; 21329.731; 7412087.7707121
1456.70; 21535.425; 7434009.9038603
1457.71; 21601.965; 7455999.7721955
1458.73; 21555.048; 7477941.8809689
1459.75; 21439.479; 7499766.3457223
1460.77; 21306.443; 7521455.3847898
1461.79; 21199.882; 7543035.949445
1462.80; 21146.501; 7564562.1744495
1463.82; 21152.339; 7586094.3428192
1464.84; 21206.293; 7607681.4336871
1465.86; 21288.355; 7629352.0605669
1466.88; 21378.794; 7651114.7498439
1467.89; 21464.507; 7672964.6915528
1468.91; 21540.372; 7694891.8610912
1469.93; 21605.747; 7716885.5796476
1470.95; 21658.431; 7738932.9276213
1471.97; 21689.412; 7761011.812885
1472.98; 21681.254; 7783082.394057
1474.00; 21611.251; 7805081.7148937
1475.02; 21458.335; 7826925.3736494
1476.04; 21211.095; 7848517.3526247
1477.06; 20873.807; 7869765.9877234
1478.07; 20468.281; 7890601.8149301
1479.09; 20031.057; 7910992.5666363
1480.11; 19607.293; 7930951.9451824
1481.13; 19243.707; 7950541.2086278
1482.15; 18982.815; 7969864.8954495
1483.16; 18859.634; 7989063.1887351
1484.18; 18900.528; 8008303.1107694
1485.20; 19122.866; 8027769.3628134
1486.22; 19534.011; 8047654.1431135
1487.23; 20129.09; 8068144.6885562
1488.25; 20888.329; 8089408.1064414
1489.27; 21775.899; 8111575.0320528
1490.29; 22742.403; 8134725.8165983
1491.31; 23732.14; 8158884.1107951
1492.32; 24694.424; 8184021.9684501
1493.34; 25596.232; 8210077.8278946
1494.36; 26432.241; 8236984.7084888
1495.38; 27228.441; 8264702.0869456
1496.40; 28037.139; 8293242.6844634
1497.41; 28923.726; 8322685.7894009
1498.43; 29948.289; 8353171.8554274
1499.45; 31146.949; 8384878.1058915
1500.47; 32518.229; 8417980.2595499
1501.49; 34018.541; 8452609.6663197
1502.50; 35568.53; 8488816.8952811
1503.52; 37069.137; 8526551.677101
1504.54; 38423.758; 8565665.4050405
1505.56; 39561.317; 8605937.1184282
1506.58; 40454.775; 8647118.3340228
1507.59; 41130.641; 8688987.551719
1508.61; 41667; 8731402.7599789
1509.63; 42180.18; 8774340.3635287
1510.65; 42802.698; 8817911.6633279
1511.67; 43657.18; 8862352.7888231
1512.68; 44831.953; 8907989.7822267
1513.70; 46363.7; 8955186.0285873
1514.72; 48230.966; 9004283.0702751
1515.74; 50359.679; 9055547.0503721
1516.76; 52639.004; 9109131.2848642
1517.77; 54943.395; 9165061.2905635
1518.79; 57155.611; 9223243.2359899
1519.81; 59185.784; 9283491.8099597
1520.83; 60983.401; 9345570.2811128
1521.85; 62541.387; 9409234.714471
1522.86; 63893.613; 9474275.65568
1523.88; 65108.261; 9540553.0555172
1524.90; 66279.245; 9608022.467312
1525.92; 67516.763; 9676751.6180659
1526.94; 68936.63; 9746926.1321671
1527.95; 70647.418; 9818842.1554027
1528.97; 72734.854; 9892883.0985681
1529.99; 75244.549; 9969478.8026692
1531.01; 78166.079; 10049048.497664
1532.03; 81422.722; 10131933.315365
1533.04; 84870.96; 10218328.289978
1534.06; 88311.864; 10308225.956286
1535.08; 91513.359; 10401382.606355
1536.10; 94239.081; 10497313.924669
1537.11; 96277.55; 10595320.316332
1538.13; 97465.372; 10694535.859421
1539.15; 97700.316; 10793990.565291
1540.17; 96943.433; 10892674.796306
1541.19; 95212.674; 10989597.189473
1542.20; 92572.397; 11083831.894444
1543.22; 89123.047; 11174555.310919
1544.24; 84993.465; 11261074.990671
1545.26; 80335.589; 11342853.154008
1546.28; 75319.24; 11419524.890095
1547.29; 70124.041; 11490908.138172
1548.31; 64926.824; 11557000.843385
1549.33; 59885.323; 11617961.518166
1550.35; 55121.564; 11674072.89211
1551.37; 50709.73; 11725693.208609
1552.38; 46672.76; 11773204.064778
1553.40; 42989.579; 11816965.601185
1554.42; 39611.424; 11857288.321889
1555.44; 36482.743; 11894426.180048
1556.46; 33560.511; 11928589.332472
1557.47; 30826.418; 11959969.295674
1558.49; 28288.786; 11988766.058848
1559.51; 25974.546; 12015207.025408
1560.53; 23914.743; 12039551.201446
1561.55; 22128.898; 12062077.464521
1562.56; 20613.505; 12083061.123162
1563.58; 19338.196; 12102746.572364
1564.60; 18250.372; 12121324.663155
1565.62; 17286.368; 12138921.439506
1566.64; 16385.378; 12155601.047328
1567.65; 15501.861; 12171381.273001
1568.67; 14613.018; 12186256.69452
1569.69; 13719.704; 12200222.760843
1570.71; 12841.183; 12213294.531107
1571.73; 12005.822; 12225515.939964
1572.74; 11240.715; 12236958.503119
1573.76; 10563.198; 12247711.383029
1574.78; 9976.3474; 12257866.874208
1575.80; 9469.2366; 12267506.148487
1576.82; 9021.3066; 12276689.449323
1577.83; 8609.1185; 12285453.16047
1578.85; 8213.2469; 12293813.891435
1579.87; 7823.2384; 12301777.610574
1580.89; 7439.314; 12309350.511208
1581.90; 7070.5774; 12316548.053844
1582.92; 6730.5676; 12323399.481225
1583.94; 6431.7404; 12329946.71544
1584.96; 6180.6669; 12336238.367621
1585.98; 5975.3738; 12342321.040306
1586.99; 5805.4703; 12348230.758552
1588.01; 5654.793; 12353987.093775
1589.03; 5505.5647; 12359591.521018
1590.05; 5342.7185; 12365030.177922
1591.07; 5157.156; 12370279.940234
1592.08; 4947.1855; 12375315.961612
1593.10; 4718.0175; 12380118.699851
1594.12; 4479.749; 12384678.891041
1595.14; 4244.5871; 12388999.697559
1596.16; 4024.0996; 12393096.057268
1597.17; 3827.0934; 12396991.873168
1598.19; 3658.4324; 12400715.999521
1599.21; 3518.8286; 12404298.015221
1600.23; 3405.4453; 12407764.611556
1601.25; 3313.0511; 12411137.15458
1602.26; 3235.4278; 12414430.680483
1603.28; 3166.7379; 12417654.28301
1604.30; 3102.5859; 12420812.581558
1605.32; 3040.5731; 12423907.753724
1606.34; 2980.2568; 12426941.52654
1607.35; 2922.5806; 12429916.587465
1608.37; 2868.9946; 12432837.100195
1609.39; 2820.5827; 12435708.331648
1610.41; 2777.4988; 12438535.70555
1611.43; 2738.8884; 12441323.775746
1612.44; 2703.2675; 12444075.585435
1613.46; 2669.1428; 12446792.657612
1614.48; 2635.5603; 12449475.544237
1615.50; 2602.3164; 12452124.59005
1616.52; 2569.731; 12454740.465293
1617.53; 2538.0953; 12457324.13681
1618.55; 2507.0693; 12459876.225184
1619.57; 2475.3329; 12462396.007292
1620.59; 2440.6895; 12464880.523843
1621.61; 2400.6159; 12467324.247286
1622.62; 2353.0574; 12469719.558135
1623.64; 2297.1528; 12472057.96053
1624.66; 2233.6109; 12474331.679999
1625.68; 2164.6001; 12476535.149507
1626.70; 2093.2163; 12478665.953343
1627.71; 2022.747; 12480725.022468
1628.73; 1956.0078; 12482716.154022
1629.75; 1894.9606; 12484645.142148
1630.77; 1840.6822; 12486518.877211
1631.78; 1793.6015; 12488344.686182
1632.80; 1753.8263; 12490130.005655
1633.82; 1721.3759; 12491882.292017
1634.84; 1696.2115; 12493608.962142
1635.86; 1678.0662; 12495317.161081
1636.87; 1666.1752; 12497013.255549
1637.89; 1659.0529; 12498702.099851
1638.91; 1654.4417; 12500386.250114
1639.93; 1649.496; 12502065.365825
1640.95; 1641.1822; 12503736.018449
1641.96; 1626.8079; 12505392.038656
1642.98; 1604.5561; 12507025.407502
1644.00; 1573.8973; 12508627.567048
1645.02; 1535.7762; 12510190.920975
1646.04; 1492.5142; 12511710.236051
1647.05; 1447.4267; 12513183.653936
1648.07; 1404.2164; 12514613.085586
1649.09; 1366.2632; 12516003.882592
1650.11; 1335.9684; 12517363.840815
1651.13; 1314.3131; 12518701.754814
1652.14; 1300.748; 12520025.860104
1653.16; 1293.4465; 12521342.532877
1654.18; 1289.8499; 12522655.544399
1655.20; 1287.3444; 12523966.005456
1656.22; 1283.8737; 12525272.933508
1657.23; 1278.3101; 12526574.198007
1658.25; 1270.4951; 12527867.507221
1659.27; 1260.9719; 12529151.122222
1660.29; 1250.5306; 12530424.108401
1661.31; 1239.743; 12531686.113319
1662.32; 1228.6507; 12532936.826758
1663.34; 1216.7034; 12534175.378326
1664.36; 1202.9529; 12535399.932472
1665.38; 1186.4222; 12536607.659044
1666.40; 1166.5201; 12537795.126152
1667.41; 1143.3707; 12538959.028214
1668.43; 1117.9619; 12540097.065222
1669.45; 1092.074; 12541208.749406
1670.47; 1068.0051; 12542295.932537
1671.49; 1048.1529; 12543362.906947
1672.50; 1034.5342; 12544416.01809
1673.52; 1028.3366; 12545462.820374
1674.54; 1029.5905; 12546510.899089
1675.56; 1037.0371; 12547566.558098
1676.57; 1048.2407; 12548633.621856
1677.59; 1059.9507; 12549712.605949
1678.61; 1068.6653; 12550800.461156
1679.63; 1071.2937; 12551890.991918
1680.65; 1065.7778; 12552975.907721
1681.66; 1051.528; 12554046.317895
1682.68; 1029.5612; 12555094.366818
1683.70; 1002.2973; 12556114.662194
1684.72; 973.05511; 12557105.190305
1685.74; 945.36449; 12558067.530556
1686.75; 922.25451; 12559006.345853
1687.77; 905.68221; 12559928.291257
1688.79; 896.22354; 12560840.608146
1689.81; 893.0806; 12561749.725655
1690.83; 894.38151; 12562660.167441
1691.84; 897.68511; 12563573.972147
1692.86; 900.56379; 12564490.707227
1693.88; 901.13188; 12565408.020599
1694.90; 898.40929; 12566322.562488
1695.92; 892.45412; 12567231.042267
1696.93; 884.25162; 12568131.172262
1697.95; 875.3996; 12569022.291278
1698.97; 867.67202; 12569905.543955
1699.99; 862.56594; 12570783.598863
1701.01; 860.93625; 12571659.994818
1702.02; 862.79925; 12572538.287226
1703.04; 867.34355; 12573421.205534
1704.06; 873.13583; 12574310.020132
1705.08; 878.46204; 12575204.256585
1706.10; 881.71408; 12576101.803467
1707.11; 881.72582; 12576999.362307
1708.13; 877.98211; 12577893.110206
1709.15; 870.66247; 12578779.407034
1710.17; 860.5277; 12579655.387094
1711.19; 848.6965; 12580519.323505
1712.20; 836.38242; 12581370.724718
1713.22; 824.66135; 12582210.194385
1714.24; 814.32076; 12583039.137784
1715.26; 805.81053; 12583859.418136
1716.28; 799.28228; 12584673.053002
1717.29; 794.68057; 12585482.00353
1718.31; 791.84054; 12586288.063027
1719.33; 790.55374; 12587092.812624
1720.35; 790.58415; 12587897.593177
1721.37; 791.63986; 12588703.448396
1722.38; 793.32656; 12589511.020598
1723.40; 795.11763; 12590320.416036
1724.42; 796.37108; 12591131.087428
1725.44; 796.40624; 12591941.794612
1726.45; 794.63018; 12592750.69385
1727.47; 790.68205; 12593555.574061
1728.49; 784.55172; 12594354.213859
1729.51; 776.63122; 12595144.790925
1730.53; 767.67334; 12595926.249254
1731.54; 758.65728; 12596698.52963
1732.56; 750.58837; 12597462.5962
1733.58; 744.27936; 12598220.240468
1734.60; 740.16908; 12598973.700654
1735.62; 738.22663; 12599725.183511
1736.63; 737.96873; 12600476.403833
1737.65; 738.58904; 12601228.255603
1738.67; 739.16862; 12601980.697356
1739.69; 738.91388; 12602732.879796
1740.71; 737.35883; 12603483.47927
1741.72; 734.47499; 12604231.143116
1742.74; 730.65483; 12604974.918208
1743.76; 726.56882; 12605714.533913
1744.78; 722.93253; 12606450.44803
1745.80; 720.25011; 12607183.631564
1746.81; 718.61223; 12607915.147809
1747.83; 717.6157; 12608645.649623
1748.85; 716.43869; 12609374.953294
1749.87; 714.05843; 12610101.833962
1750.89; 709.55155; 12610824.12682
1751.90; 702.38746; 12611539.126942
1752.92; 692.62291; 12612244.18718
1753.94; 680.93441; 12612937.34902
1754.96; 668.47548; 12613617.828213
1755.98; 656.60168; 12614286.220385
1756.99; 646.54694; 12614944.37727
1758.01; 639.14768; 12615595.002031
1759.03; 634.69008; 12616241.089144
1760.05; 632.91132; 12616885.365556
1761.07; 633.13371; 12617529.868356
1762.08; 634.4712; 12618175.732658
1763.10; 636.03448; 12618823.188308
1764.12; 637.07639; 12619471.70458
1765.14; 637.05389; 12620120.197952
1766.16; 635.62109; 12620767.232796
1767.17; 632.59287; 12621411.185045
1768.19; 627.92123; 12622050.38176
1769.21; 621.70762; 12622683.253286
1770.23; 614.24479; 12623308.527972
1771.24; 606.05543; 12623925.46625
1772.26; 597.88512; 12624534.087505
1773.28; 590.61829; 12625135.311439
1774.30; 585.11451; 12625730.932762
1775.32; 581.99632; 12626323.379903
1776.33; 581.44627; 12626915.267115
1777.35; 583.07889; 12627508.816267
1778.37; 585.93975; 12628105.277652
1779.39; 588.65187; 12628704.499856
1780.41; 589.68975; 12629304.778576
1781.42; 587.72411; 12629903.056357
1782.44; 581.9566; 12630495.463063
1783.46; 572.35983; 12631078.100676
1784.48; 559.75508; 12631647.907189
1785.50; 545.69515; 12632203.401309
1786.51; 532.16571; 12632745.123035
1787.53; 521.16421; 12633275.645714
1788.55; 514.25176; 12633799.131819
1789.57; 512.18731; 12634320.516394
1790.59; 514.74151; 12634844.501035
1791.60; 520.74771; 12635374.599732
1792.62; 528.38798; 12635912.475896
1793.64; 535.6481; 12636457.742552
1794.66; 540.82467; 12637008.278729
1795.68; 542.9468; 12637560.975143
1796.69; 541.99348; 12638112.701121
1797.71; 538.84242; 12638661.219452
1798.73; 534.96318; 12639205.788885
1799.75; 531.94342; 12639747.284337
1800.77; 530.98829; 12640287.807506
1801.78; 532.54252; 12640829.91281
1802.80; 536.14836; 12641375.688705
1803.82; 540.58071; 12641925.976544
1804.84; 544.21602; 12642479.964968
1805.86; 545.52073; 12643035.281532
1806.87; 543.51029; 12643588.551551
1807.89; 538.04162; 12644136.254707
1808.91; 529.85637; 12644675.625625
1809.93; 520.37003; 12645205.339862
1810.95; 511.27944; 12645725.800267
1811.96; 504.11185; 12646238.964378
1812.98; 499.85; 12646747.790113
1814.00; 498.73588; 12647255.481716
1815.02; 500.2949; 12647764.760332
1816.04; 503.55238; 12648277.354928
1817.05; 507.35854; 12648793.824032
1818.07; 510.71339; 12649313.708227
1819.09; 512.99467; 12649835.914665
1820.11; 514.03289; 12650359.177967
1821.12; 514.03216; 12650882.440528
1822.14; 513.38446; 12651405.043759
1823.16; 512.45303; 12651926.698833
1824.18; 511.40092; 12652447.282899
1825.20; 510.11678; 12652966.559768
1826.21; 508.25267; 12653483.939057
1827.23; 505.35203; 12653998.365612
1828.25; 501.02147; 12654508.383845
1829.27; 495.09327; 12655012.367431
1830.29; 487.73411; 12655508.859711
1831.30; 479.47431; 12655996.94387
1832.32; 471.15205; 12656476.556331
1833.34; 463.78379; 12656948.668217
1834.36; 458.38334; 12657415.282679
1835.38; 455.75963; 12657879.22632
1836.39; 456.32823; 12658343.748768
1837.41; 459.97519; 12658811.983666
1838.43; 466.01054; 12659286.362284
1839.45; 473.23872; 12659768.098879
1840.47; 480.15211; 12660256.873003
1841.48; 485.22248; 12660750.808548
1842.50; 487.23233; 12661246.790037
1843.52; 485.56437; 12661741.073615
1844.54; 480.36518; 12662230.064636
1845.56; 472.52407; 12662711.073751
1846.57; 463.45685; 12663182.852825
1847.59; 454.74286; 12663645.76143
1848.61; 447.71337; 12664101.514322
1849.63; 443.11055; 12664552.581745
1850.65; 440.91925; 12665001.418516
1851.66; 440.42206; 12665449.749169
1852.68; 440.45733; 12665898.115721
1853.70; 439.79468; 12666345.80773
1854.72; 437.50611; 12666791.170071
1855.74; 433.21572; 12667232.164979
1856.75; 427.15641; 12667666.991768
1857.77; 420.02988; 12668094.564062
1858.79; 412.73329; 12668514.708742
1859.81; 406.05699; 12668928.057232
1860.83; 400.4601; 12669335.708334
1861.84; 395.99466; 12669738.813811
1862.86; 392.39009; 12670138.24999
1863.88; 389.25098; 12670534.490689
1864.90; 386.28371; 12670927.710838
1865.91; 383.46372; 12671318.060362
1866.93; 381.08407; 12671705.987502
1867.95; 379.67389; 12672092.479135
1868.97; 379.82326; 12672479.122829
1869.99; 381.98121; 12672867.96322
1871.00; 386.29654; 12673261.196425
1872.02; 392.54961; 12673660.794984
1873.04; 400.18687; 12674068.167946
1874.06; 408.43495; 12674483.937102
1875.08; 416.44974; 12674907.864967
1876.09; 423.45386; 12675338.922719
1877.11; 428.83088; 12675775.454046
1878.13; 432.16747; 12676215.381879
1879.15; 433.25496; 12676656.416735
1880.17; 432.0718; 12677096.247187
1881.18; 428.76561; 12677532.712072
1882.20; 423.64194; 12677963.961285
1883.22; 417.15363; 12678388.605679
1884.24; 409.87626; 12678805.842026
1885.26; 402.45696; 12679215.525847
1886.27; 395.53345; 12679618.16183
1887.29; 389.63448; 12680014.792916
1888.31; 385.08448; 12680406.792303
1889.33; 381.93933; 12680795.590058
1890.35; 379.97444; 12681182.387642
1891.36; 378.73281; 12681567.921302
1892.38; 377.62342; 12681952.325645
1893.40; 376.04617; 12682335.124415
1894.42; 373.51259; 12682715.344111
1895.44; 369.73385; 12683091.71722
1896.45; 364.65865; 12683462.923989
1897.47; 358.45853; 12683827.819305
1898.49; 351.47296; 12684185.603613
1899.51; 344.13528; 12684535.918477
1900.53; 336.90213; 12684878.870303
1901.54; 330.20235; 12685215.002049
1902.56; 324.41023; 12685545.237663
1903.58; 319.83644; 12685870.817356
1904.60; 316.72342; 12686193.228129
1905.62; 315.23181; 12686514.120513
1906.63; 315.41233; 12686835.196655
1907.65; 317.16866; 12687158.060668
1908.67; 320.2278; 12687484.038746
1909.69; 324.13832; 12687813.997572
1910.71; 328.31279; 12688148.205825
1911.72; 332.11682; 12688486.286417
1912.74; 334.99009; 12688827.291868
1913.76; 336.56887; 12689169.904451
1914.78; 336.77326; 12689512.725094
1915.79; 335.8279; 12689854.583404
1916.81; 334.2028; 12690194.787434
1917.83; 332.48492; 12690533.242737
1918.85; 331.21392; 12690870.40421
1919.87; 330.72844; 12691207.071489
1920.88; 331.06818; 12691544.084615
1921.90; 331.96085; 12691882.006435
1922.92; 332.89797; 12692220.882203
1923.94; 333.27699; 12692560.143795
1924.96; 332.5676; 12692898.683261
1925.97; 330.45449; 12693235.071676
1926.99; 326.91724; 12693567.859315
1928.01; 322.22835; 12693895.873869
1929.03; 316.87546; 12694218.439412
1930.05; 311.43529; 12694535.467096
1931.06; 306.43953; 12694847.409315
1932.08; 302.27215; 12695155.109316
1933.10; 299.125; 12695459.605658
1934.12; 297.01833; 12695761.957498
1935.14; 295.8707; 12696063.1411
1936.15; 295.58696; 12696364.035866
1937.17; 296.12719; 12696665.480563
1938.19; 297.52726; 12696968.350478
1939.21; 299.86; 12697273.595019
1940.23; 303.14956; 12697582.188187
1941.24; 307.27255; 12697894.978382
1942.26; 311.88925; 12698212.468182
1943.28; 316.44273; 12698534.59323
1944.30; 320.24264; 12698860.586414
1945.32; 322.62026; 12699188.999916
1946.33; 323.11236; 12699517.91436
1947.35; 321.61445; 12699845.303996
1948.37; 318.44744; 12700169.469745
1949.39; 314.30572; 12700489.419409
1950.41; 310.09275; 12700805.08045
1951.42; 306.68872; 12701117.276329
1952.44; 304.72059; 12701427.46874
1953.46; 304.40635; 12701737.341273
1954.48; 305.52175; 12702048.349229
1955.50; 307.49698; 12702361.367886
1956.51; 309.60706; 12702676.534515
1957.53; 311.18899; 12702993.311475
1958.55; 311.81298; 12703310.723631
1959.57; 311.35534; 12703627.669935
1960.58; 309.95893; 12703943.194746
1961.60; 307.90891; 12704256.632726
1962.62; 305.48081; 12704567.599013
1963.64; 302.82367; 12704875.860442
1964.66; 299.92286; 12705181.168974
1965.67; 296.65284; 12705483.148759
1966.69; 292.89296; 12705781.301154
1967.71; 288.65507; 12706075.139563
1968.73; 284.16725; 12706364.409564
1969.75; 279.87568; 12706649.310931
1970.76; 276.35762; 12706930.631067
1971.78; 274.17138; 12707209.725704
1972.80; 273.69178; 12707488.332129
1973.82; 274.98484; 12707768.254825
1974.84; 277.76216; 12708051.004723
1975.85; 281.43021; 12708337.488536
1976.87; 285.2203; 12708627.830499
1977.89; 288.36272; 12708921.371307
1978.91; 290.25739; 12709216.840806
1979.93; 290.59731; 12709512.656324
1980.94; 289.41614; 12709807.269466
1981.96; 287.05307; 12710099.477105
1982.98; 284.04937; 12710388.627104
1984.00; 281.0073; 12710674.680411
1985.02; 278.44881; 12710958.129289
1986.03; 276.70835; 12711239.806445
1987.05; 275.88253; 12711520.642953
1988.07; 275.84282; 12711801.43904
1989.09; 276.29997; 12712082.700486
1990.11; 276.8964; 12712364.569071
1991.12; 277.2975; 12712646.845955
1992.14; 277.25691; 12712929.081521
1993.16; 276.64239; 12713210.691538
1994.18; 275.42392; 12713491.0612
1995.20; 273.63865; 12713769.613543
1996.21; 271.35408; 12714045.840291
1997.23; 268.64777; 12714319.31213
1998.25; 265.61203; 12714589.693712
1999.27; 262.37774; 12714856.782933
2000.29; 259.14038; 12715120.576652
2001.30; 256.16718; 12715381.343784
2002.32; 253.77092; 12715639.671629
2003.34; 252.24905; 12715896.450281
2004.36; 251.80359; 12716152.775467
2005.37; 252.46858; 12716409.777585
2006.39; 254.07407; 12716668.414028
2007.41; 256.26551; 12716929.281262
2008.43; 258.57922; 12717192.503755
2009.45; 260.55448; 12717457.736973
2010.46; 261.84811; 12717724.287053
2011.48; 262.31516; 12717991.312564
2012.50; 262.02958; 12718258.047371
2013.52; 261.23945; 12718523.977862
2014.54; 260.27333; 12718788.924881
2015.55; 259.43108; 12719053.014528
2016.57; 258.8964; 12719316.559887
2017.59; 258.69877; 12719579.904068
2018.61; 258.73339; 12719843.283496
2019.63; 258.82573; 12720106.756917
2020.64; 258.8119; 12720370.216261
2021.66; 258.60233; 12720633.462278
2022.68; 258.20519; 12720896.304019
2023.70; 257.70415; 12721158.635725
2024.72; 257.2046; 12721420.458912
2025.73; 256.77486; 12721681.844643
2026.75; 256.4103; 12721942.859266
2027.77; 256.03713; 12722203.494014
2028.79; 255.55449; 12722463.637461
2029.81; 254.89586; 12722723.110445
2030.82; 254.08114; 12722981.754078
2031.84; 253.23404; 12723239.535405
2032.86; 252.55348; 12723496.623945
2033.88; 252.24783; 12723753.401349
2034.90; 252.45806; 12724010.392761
2035.91; 253.20217; 12724268.141645
2036.93; 254.36626; 12724527.075522
2037.95; 255.7489; 12724787.416863
2038.97; 257.14258; 12725049.176917
2039.99; 258.41895; 12725312.236259
2041.00; 259.58026; 12725576.477763
2042.02; 260.75155; 12725841.911593
2043.04; 262.1116; 12726108.729895
2044.06; 263.78722; 12726377.253904
2045.08; 265.75389; 12726647.7799
2046.09; 267.78762; 12726920.37614
2047.11; 269.49633; 12727194.711769
2048.13; 270.42956; 12727469.997388
2049.15; 270.23326; 12727745.083191
2050.17; 268.79509; 12728018.704994
2051.18; 266.32352; 12728289.810848
2052.20; 263.32401; 12728557.863328
2053.22; 260.47014; 12728823.010692
2054.24; 258.40611; 12729086.056961
2055.25; 257.54375; 12729348.225385
2056.27; 257.923; 12729610.779871
2057.29; 259.18593; 12729874.619967
2058.31; 260.67757; 12730139.978482
2059.33; 261.64423; 12730406.321014
2060.34; 261.46713; 12730672.483266
2061.36; 259.85679; 12730937.006262
2062.38; 256.94674; 12731198.566951
2063.40; 253.25822; 12731456.372895
2064.42; 249.54942; 12731710.403432
2065.43; 246.59865; 12731961.430216
2066.45; 244.98991; 12732210.81937
2067.47; 244.96438; 12732460.182539
2068.49; 246.37754; 12732710.984238
2069.51; 248.76594; 12732964.217229
2070.52; 251.4943; 12733220.227569
2071.54; 253.93168; 12733478.719064
2072.56; 255.60263; 12733738.91151
2073.58; 256.27278; 12733999.78614
2074.60; 255.95403; 12734260.336293
2075.61; 254.84092; 12734519.753357
2076.63; 253.20998; 12734777.510185
2077.65; 251.32053; 12735033.343637
2078.67; 249.3497; 12735287.170873
2079.69; 247.37758; 12735538.990572
2080.70; 245.41929; 12735788.816818
2081.72; 243.48426; 12736036.673289
2082.74; 241.6349; 12736282.647193
2083.76; 240.01905; 12736526.976229
2084.78; 238.86136; 12736770.126781
2085.79; 238.41416; 12737012.822104
2086.81; 238.88324; 12737255.994939
2087.83; 240.35328; 12737500.66421
2088.85; 242.73882; 12737747.761859
2089.87; 245.77935; 12737997.954636
2090.88; 249.0832; 12738251.510585
2091.90; 252.20971; 12738508.249187
2092.92; 254.76691; 12738767.590905
2093.94; 256.49671; 12739028.693493
2094.96; 257.32375; 12739290.637963
2095.97; 257.35502; 12739552.614266
2096.99; 256.8332; 12739814.059377
2098.01; 256.05989; 12740074.717294
2099.03; 255.31334; 12740334.615257
2100.04; 254.78444; 12740593.974823
2101.06; 254.54659; 12740853.092271
2102.08; 254.56243; 12741112.225845
2103.10; 254.71828; 12741371.518065
2104.12; 254.87007; 12741630.964796
2105.13; 254.88439; 12741890.426102
2106.15; 254.66434; 12742149.663407
2107.17; 254.15871; 12742408.386001
2108.19; 253.36037; 12742666.295925
2109.21; 252.30253; 12742923.129009
2110.22; 251.05848; 12743178.695708
2111.24; 249.74449; 12743432.924819
2112.26; 248.51893; 12743685.906368
2113.28; 247.569; 12743937.920922
2114.30; 247.07932; 12744189.437004
2115.31; 247.18525; 12744441.060921
2116.33; 247.92254; 12744693.435366
2117.35; 249.19124; 12744947.101295
2118.37; 250.75108; 12745202.355069
2119.39; 252.2575; 12745459.142317
2120.40; 253.33484; 12745717.026247
2121.42; 253.66958; 12745975.250934
2122.44; 253.09827; 12746232.894048
2123.46; 251.66361; 12746489.076743
2124.48; 249.62043; 12746743.179569
2125.49; 247.38676; 12746995.008621
2126.51; 245.45084; 12747244.866983
2127.53; 244.25691; 12747493.509974
2128.55; 244.09849; 12747741.991704
2129.57; 245.04553; 12747991.437478
2130.58; 246.9233; 12748242.794745
2131.60; 249.34854; 12748496.620799
2132.62; 251.81498; 12748752.957584
2133.64; 253.80961; 12749011.324813
2134.66; 254.93369; 12749270.83631
2135.67; 255.00101; 12749530.416331
2136.69; 254.08923; 12749789.068204
2137.71; 252.5297; 12750046.132543
2138.73; 250.83404; 12750301.470771
2139.75; 249.57152; 12750555.52381
2140.76; 249.22496; 12750809.224061
2141.78; 250.06123; 12751063.775599
2142.80; 252.05211; 12751320.353773
2143.82; 254.87031; 12751579.800749
2144.84; 257.96608; 12751842.399082
2145.85; 260.70713; 12752107.787688
2146.87; 262.54471; 12752375.046869
2147.89; 263.15933; 12752642.931716
2148.91; 262.54438; 12752910.190568
2149.92; 261.00354; 12753175.880913
2150.94; 259.0645; 12753439.597391
2151.96; 257.33651; 12753701.554858
2152.98; 256.356; 12753962.514206
2154.00; 256.46526; 12754223.584772
2155.01; 257.75588; 12754485.969135
2156.03; 260.08464; 12754750.724075
2157.05; 263.14516; 12755018.594494
2158.07; 266.56268; 12755289.943797
2159.09; 269.97682; 12755564.76855
2160.10; 273.08901; 12755842.76138
2161.12; 275.67042; 12756123.381975
2162.14; 277.54521; 12756405.911019
2163.16; 278.57317; 12756689.486485
2164.18; 278.6526; 12756973.142806
2165.19; 277.74943; 12757255.879736
2166.21; 275.94067; 12757536.77543
2167.23; 273.44704; 12757815.132721
2168.25; 270.62883; 12758090.621192
2169.27; 267.93192; 12758363.364329
2170.28; 265.79239; 12758633.929515
2171.30; 264.52855; 12758903.208166
2172.32; 264.25983; 12759172.213268
2173.34; 264.88562; 12759441.855403
2174.36; 266.13669; 12759712.771065
2175.37; 267.68357; 12759985.261391
2176.39; 269.26362; 12760259.360137
2177.41; 270.7792; 12760535.00168
2178.43; 272.3303; 12760812.222175
2179.45; 274.16983; 12761091.315234
2180.46; 276.6004; 12761372.882508
2181.48; 279.85365; 12761657.761445
2182.50; 283.99865; 12761946.859819
2183.52; 288.91213; 12762240.959897
2184.54; 294.31615; 12762540.561043
2185.55; 299.8614; 12762845.807007
2186.57; 305.21672; 12763156.504453
2187.59; 310.12747; 12763472.200832
2188.61; 314.42314; 12763792.270022
2189.63; 317.98147; 12764115.961436
2190.64; 320.67816; 12764442.397963
2191.66; 322.3585; 12764770.545007
2192.68; 322.85551; 12765099.197983
2193.70; 322.05455; 12765427.03562
2194.71; 319.97808; 12765752.759501
2195.73; 316.84895; 12766075.298062
2196.75; 313.09489; 12766394.015153
2197.77; 309.2793; 12766708.848131
2198.79; 305.97478; 12767020.317252
2199.80; 303.62252; 12767329.391874
2200.82; 302.42934; 12767637.251889
2201.84; 302.34132; 12767945.022308
2202.86; 303.10252; 12768253.56759
2203.88; 304.37248; 12768563.405642
2204.89; 305.85276; 12768874.750549
2205.91; 307.36988; 12769187.639824
2206.93; 308.88314; 12769502.069533
2207.95; 310.41958; 12769818.06327
2208.97; 311.97213; 12770135.637434
2209.98; 313.41397; 12770454.679329
2211.00; 314.47566; 12770774.801982
2212.02; 314.80365; 12771095.258513
2213.04; 314.08156; 12771414.979992
2214.06; 312.16561; 12771732.751115
2215.07; 309.17566; 12772047.478599
2216.09; 305.49906; 12772358.463454
2217.11; 301.69863; 12772665.57964
2218.13; 298.3555; 12772969.292667
2219.15; 295.90431; 12773270.510482
2220.16; 294.52251; 12773570.32169
2221.18; 294.11436; 12773869.717415
2222.20; 294.39247; 12774169.396248
2223.22; 295.02196; 12774469.715868
2224.24; 295.76794; 12774770.794871
2225.25; 296.58785; 12775072.708499
2226.27; 297.63302; 12775375.686074
2227.29; 299.16164; 12775680.219717
2228.31; 301.40008; 12775987.031996
2229.33; 304.41039; 12776296.908639
2230.34; 308.01884; 12776610.458529
2231.36; 311.837; 12776927.895138
2232.38; 315.37164; 12777248.929863
2233.40; 318.18667; 12777572.830162
2234.42; 320.0607; 12777898.638139
2235.43; 321.08487; 12778225.48868
2236.45; 321.66493; 12778552.9297
2237.47; 322.42277; 12778881.142167
2238.49; 324.02434; 12779210.984964
2239.51; 326.98348; 12779543.840035
2240.52; 331.49811; 12779881.290804
2241.54; 337.36615; 12780224.714991
2242.56; 344.0063; 12780574.898555
2243.58; 350.5807; 12780931.77458
2244.59; 356.19026; 12781294.360899
2245.61; 360.0943; 12781660.921361
2246.63; 361.90003; 12782029.319973
2247.65; 361.67395; 12782397.488446
2248.67; 359.94569; 12782763.897626
2249.68; 357.60048; 12783127.91948
2250.70; 355.68389; 12783489.990331
2251.72; 355.16454; 12783851.532509
2252.74; 356.71171; 12784214.649639
2253.76; 360.54203; 12784581.665872
2254.77; 366.37255; 12784954.617321
2255.79; 373.49069; 12785334.814725
2256.81; 380.92203; 12785722.576913
2257.83; 387.6523; 12786117.190231
2258.85; 392.84728; 12786517.09181
2259.86; 396.0169; 12786920.21992
2260.88; 397.08666; 12787324.437001
2261.90; 396.36527; 12787727.919739
2262.92; 394.42492; 12788129.427288
2263.94; 391.93233; 12788528.397487
2264.95; 389.47882; 12788924.870119
2265.97; 387.45453; 12789319.282115
2266.99; 385.99684; 12789712.210243
2268.01; 385.02084; 12790104.14484
2269.03; 384.31651; 12790495.362464
2270.04; 383.67904; 12790885.931169
2271.06; 383.02994; 12791275.839115
2272.08; 382.49005; 12791665.197486
2273.10; 382.37959; 12792054.443406
2274.12; 383.14179; 12792444.465219
2275.13; 385.21039; 12792836.592772
2276.15; 388.8587; 12793232.434153
2277.17; 394.07637; 12793633.586894
2278.19; 400.51316; 12794041.292009
2279.21; 407.51129; 12794456.120913
2280.22; 414.2216; 12794877.780624
2281.24; 419.77412; 12795305.092565
2282.26; 423.45713; 12795736.153653
2283.28; 424.85716; 12796168.63991
2284.30; 423.92539; 12796600.177661
2285.31; 420.95933; 12797028.69609
2286.33; 416.51394; 12797452.689304
2287.35; 411.27451; 12797871.349011
2288.37; 405.92912; 12798284.567341
2289.38; 401.0702; 12798692.839501
2290.40; 397.13826; 12799097.109115
2291.42; 394.4033; 12799498.594652
2292.44; 392.96905; 12799898.620186
2293.46; 392.78518; 12800298.458549
2294.47; 393.661; 12800699.188456
2295.49; 395.28529; 12801101.571828
2296.51; 397.26306; 12801505.968485
2297.53; 399.17638; 12801912.312811
2298.55; 400.66468; 12802320.172168
2299.56; 401.50487; 12802728.886805
2300.58; 401.66222; 12803137.761612
2301.60; 401.28656; 12803546.254014
2302.62; 400.64502; 12803954.093352
2303.64; 400.00734; 12804361.283568
2304.65; 399.52259; 12804767.980328
2305.67; 399.13493; 12805174.28246
2306.69; 398.57657; 12805580.01621
2307.71; 397.44866; 12805984.601794
2308.73; 395.36648; 12806387.067814
2309.74; 392.11802; 12806786.227037
2310.76; 387.77579; 12807180.966058
2311.78; 382.71686; 12807570.555312
2312.80; 377.53911; 12807954.873835
2313.82; 372.9008; 12808334.470754
2314.83; 369.33967; 12808710.4426
2315.85; 367.13498; 12809084.17017
2316.87; 366.2587; 12809457.005727
2317.89; 366.42752; 12809830.013126
2318.91; 367.22941; 12810203.836816
2319.92; 368.27281; 12810578.722642
2320.94; 369.30202; 12810954.656162
2321.96; 370.24086; 12811331.545383
2322.98; 371.15804; 12811709.368249
2324.00; 372.1793; 12812088.23072
2325.01; 373.39011; 12812468.32574
2326.03; 374.7713; 12812849.82675
2327.05; 376.19207; 12813232.774046
2328.07; 377.45768; 12813617.009674
2329.09; 378.38629; 12814002.190586
2330.10; 378.87975; 12814387.873823
2331.12; 378.95908; 12814773.637814
2332.14; 378.75364; 12815159.192671
2333.16; 378.45371; 12815544.442222
2334.18; 378.25052; 12815929.484927
2335.19; 378.28927; 12816314.567081
2336.21; 378.65139; 12816700.01786
2337.23; 379.36549; 12817086.195561
2338.25; 380.43287; 12817473.459807
2339.26; 381.8478; 12817862.16439
2340.28; 383.59803; 12818252.650632
2341.30; 385.644; 12818645.219584
2342.32; 387.88931; 12819040.074164
2343.34; 390.16294; 12819437.243205
2344.35; 392.23176; 12819836.518214
2345.37; 393.84962; 12820237.440134
2346.39; 394.83272; 12820639.362809
2347.41; 395.13619; 12821041.594402
2348.43; 394.90127; 12821443.586852
2349.44; 394.44896; 12821845.118873
2350.46; 394.21303; 12822246.410726
2351.48; 394.62689; 12822648.12387
2352.50; 395.99762; 12823051.232355
2353.52; 398.40857; 12823456.795082
2354.53; 401.68615; 12823865.694246
2355.55; 405.44746; 12824278.422269
2356.57; 409.2192; 12824694.989757
2357.59; 412.59313; 12825114.991756
2358.61; 415.36865; 12825537.819122
2359.62; 417.63378; 12825962.952283
2360.64; 419.75328; 12826390.243005
2361.66; 422.2623; 12826820.087801
2362.68; 425.69483; 12827253.426767
2363.70; 430.39976; 12827691.555146
2364.71; 436.40315; 12828135.794718
2365.73; 443.3619; 12828587.118002
2366.75; 450.62463; 12829045.834428
2367.77; 457.38073; 12829511.428272
2368.79; 462.85058; 12829982.590187
2369.80; 466.45842; 12830457.424734
2370.82; 467.93922; 12830933.766665
2371.84; 467.3567; 12831409.515618
2372.86; 465.04242; 12831882.908735
2373.88; 461.49065; 12832352.686306
2374.89; 457.25305; 12832818.150176
2375.91; 452.86656; 12833279.148797
2376.93; 448.82481; 12833736.033082
2377.95; 445.57797; 12834189.612227
2378.97; 443.53261; 12834641.109283
2379.98; 443.02591; 12835092.090542
2381.00; 444.26867; 12835544.336879
2382.02; 447.27653; 12835999.645088
2383.04; 451.82662; 12836459.585085
2384.05; 457.47589; 12836925.275797
2385.07; 463.65591; 12837397.25751
2386.09; 469.82443; 12837875.518503
2387.11; 475.62263; 12838359.681811
2388.13; 480.97439; 12838849.292983
2389.14; 486.07838; 12839344.099798
2390.16; 491.28327; 12839844.20497
2391.18; 496.88506; 12840350.012519
2392.20; 502.92309; 12840861.966519
2393.22; 509.0603; 12841380.167939
2394.23; 514.60702; 12841904.015682
2395.25; 518.69454; 12842432.024339
2396.27; 520.54579; 12842961.917488
2397.29; 519.74914; 12843490.999687
2398.31; 516.43554; 12844016.708785
2399.32; 511.29241; 12844537.182396
2400.34; 505.40678; 12845051.664691
2401.36; 499.99178; 12845560.634751
2402.38; 496.0902; 12846065.633172
2403.40; 494.35162; 12846568.861794
2404.41; 494.94584; 12847072.695302
2405.43; 497.62078; 12847579.25178
2406.45; 501.861; 12848090.124623
2407.47; 507.0742; 12848606.304278
2408.49; 512.7371; 12849128.248516
2409.50; 518.46361; 12849656.022094
2410.52; 523.99976; 12850189.43124
2411.54; 529.18143; 12850728.115102
2412.56; 533.89876; 12851271.600999
2413.58; 538.09376; 12851819.357226
2414.59; 541.78649; 12852370.872492
2415.61; 545.09837; 12852925.759112
2416.63; 548.23443; 12853483.838103
2417.65; 551.40434; 12854045.143929
2418.67; 554.69743; 12854609.801975
2419.68; 557.96121; 12855177.782415
2420.70; 560.74813; 12855748.599809
2421.72; 562.37928; 12856321.077644
2422.74; 562.13131; 12856893.303057
2423.76; 559.49826; 12857462.848139
2424.77; 554.43881; 12858027.242922
2425.79; 547.50971; 12858584.584179
2426.81; 539.81628; 12859134.093855
2427.83; 532.77192; 12859676.432683
2428.85; 527.72816; 12860213.637178
2429.86; 525.58833; 12860748.663418
2430.88; 526.53128; 12861284.64954
2431.90; 529.93954; 12861824.105126
2432.92; 534.56095; 12862368.265105
2433.93; 538.85628; 12862916.797544
2434.95; 541.42562; 12863467.945459
2435.97; 541.38273; 12864019.049712
2436.99; 538.56665; 12864567.287317
2438.01; 533.53425; 12865110.402165
2439.02; 527.34687; 12865647.218521
2440.04; 521.22505; 12866177.803129
2441.06; 516.1804; 12866703.252498
2442.08; 512.73323; 12867225.192804
2443.10; 510.79411; 12867745.159171
2444.11; 509.73703; 12868264.049474
2445.13; 508.63839; 12868781.821409
2446.15; 506.61224; 12869297.530808
2447.17; 503.14816; 12869809.71392
2448.19; 498.35728; 12870317.020128
2449.20; 493.05309; 12870818.926899
2450.22; 488.6322; 12871316.333392
2451.24; 486.76934; 12871811.843573
2452.26; 488.99025; 12872309.614542
2453.28; 496.2253; 12872814.750484
2454.29; 508.4639; 12873332.344789
2455.31; 524.61656; 12873866.38181
2456.33; 542.64652; 12874418.772547
2457.35; 559.96288; 12874988.790595
2458.37; 573.9911; 12875573.088763
2459.38; 582.7756; 12876166.329176
2460.40; 585.44721; 12876762.289174
2461.42; 582.41551; 12877355.16303
2462.44; 575.22083; 12877940.713011
2463.46; 566.08156; 12878516.959607
2464.47; 557.268; 12879084.234384
2465.49; 550.49167; 12879644.61115
2466.51; 546.49636; 12880200.920865
2467.53; 544.9733; 12880755.680171
2468.55; 544.8166; 12881310.279955
2469.56; 544.62324; 12881864.682908
2470.58; 543.26269; 12882417.700883
2471.60; 540.32227; 12882967.725643
2472.62; 536.28225; 12883513.637837
2473.64; 532.37099; 12884055.568529
2474.65; 530.16027; 12884595.248805
2475.67; 531.04536; 12885135.830062
2476.69; 535.78447; 12885681.23553
2477.71; 544.24145; 12886235.249846
2478.72; 555.39816; 12886800.621203
2479.74; 567.6105; 12887378.424202
2480.76; 579.00882; 12887967.830199
2481.78; 587.91173; 12888566.298968
2482.80; 593.13963; 12889170.089521
2483.81; 594.16555; 12889774.924413
2484.83; 591.10239; 12890376.641136
2485.85; 584.5735; 12890971.711729
2486.87; 575.53172; 12891557.578186
2487.89; 565.08181; 12892132.807088
2488.90; 554.33429; 12892697.095472
2489.92; 544.29256; 12893251.161807
2490.94; 535.76284; 12893796.545257
2491.96; 529.28089; 12894335.330366
2492.98; 525.06394; 12894869.822801
2493.99; 523.00743; 12895402.221793
2495.01; 522.74393; 12895934.352557
2496.03; 523.76324; 12896467.520939
2497.05; 525.56584; 12897002.524282
2498.07; 527.80065; 12897539.802572
2499.08; 530.33527; 12898079.66099
2500.10; 533.22711; 12898622.463177
2501.12; 536.60254; 12899168.701411
2502.14; 540.49072; 12899718.897642
2503.16; 544.6832; 12900273.361635
2504.17; 548.68642; 12900831.900734
2505.19; 551.80125; 12901393.610598
2506.21; 553.31409; 12901956.860465
2507.23; 552.73708; 12902519.522966
2508.25; 550.01012; 12903079.409532
2509.26; 545.58507; 12903634.791595
2510.28; 540.35148; 12904184.846089
2511.30; 535.41758; 12904729.878078
2512.32; 531.81184; 12905271.239584
2513.34; 530.19886; 12905810.959141
2514.35; 530.69981; 12906351.188642
2515.37; 532.87479; 12906893.632183
2516.39; 535.87327; 12907439.128047
2517.41; 538.70769; 12907987.509228
2518.43; 540.56971; 12908537.785864
2519.44; 541.09772; 12909088.599992
2520.46; 540.51971; 12909638.825735
2521.48; 539.63076; 12910188.146559
2522.50; 539.60874; 12910737.444968
2523.52; 541.71404; 12911288.886485
2524.53; 546.94871; 12911845.656667
2525.55; 555.76186; 12912411.398259
2526.57; 567.87853; 12912989.474097
2527.59; 582.3001; 12913582.23047
2528.60; 597.48272; 12914190.442101
2529.62; 611.65455; 12914813.080039
2530.64; 623.19519; 12915447.465849
2531.66; 630.98241; 12916089.778714
2532.68; 634.61789; 12916735.792341
2533.69; 634.47591; 12917381.661435
2534.71; 631.56752; 12918024.569918
2535.73; 627.26401; 12918663.097612
2536.75; 622.96089; 12919297.244915
2537.77; 619.77641; 12919928.150559
2538.78; 618.36196; 12920557.616352
2539.80; 618.86305; 12921187.592232
2540.82; 621.02216; 12921819.765997
2541.84; 624.37428; 12922455.352076
2542.86; 628.46518; 12923095.102511
2543.87; 633.02526; 12923739.494907
2544.89; 638.05409; 12924389.006441
2545.91; 643.80233; 12925044.369429
2546.93; 650.66692; 12925706.720274
2547.95; 659.03526; 12926377.589725
2548.96; 669.1203; 12927058.725316
2549.98; 680.82555; 12927751.776346
2551.00; 693.66962; 12928457.902084
2552.02; 706.78894; 12929177.382727
2553.04; 719.02482; 12929909.318965
2554.05; 729.08681; 12930651.497875
2555.07; 735.76809; 12931400.478045
2556.09; 738.17243; 12932151.905721
2557.11; 735.90213; 12932901.022331
2558.13; 729.15881; 12933643.274536
2559.14; 718.72677; 12934374.907369
2560.16; 705.8405; 12935093.422544
2561.18; 691.97338; 12935797.821583
2562.20; 678.6094; 12936488.616671
2563.22; 667.06384; 12937167.658875
2564.23; 658.39537; 12937837.876946
2565.25; 653.41118; 12938503.021327
2566.27; 652.72312; 12939167.465299
2567.29; 656.78769; 12939836.046825
2568.31; 665.86959; 12940513.873338
2569.32; 679.90846; 12941205.990807
2570.34; 698.32594; 12941916.856484
2571.36; 719.86176; 12942649.644695
2572.38; 742.54545; 12943405.523923
2573.39; 763.88325; 12944183.12411
2574.41; 781.26958; 12944978.422825
2575.43; 792.54474; 12945785.199172
2576.45; 796.54826; 12946596.05093
2577.47; 793.49159; 12947403.791126
2578.48; 785.01104; 12948202.898492
2579.50; 773.85253; 12948990.646976
2580.52; 763.25528; 12949767.607919
2581.54; 756.20152; 12950537.388437
2582.56; 754.74654; 12951305.68785
2583.57; 759.621; 12952078.94925
2584.59; 770.21115; 12952862.990963
2585.61; 784.90322; 12953661.988575
2586.63; 801.66585; 12954478.049818
2587.65; 818.67727; 12955311.427952
2588.66; 834.80287; 12956161.221252
2589.68; 849.79016; 12957026.270969
2590.70; 864.14893; 12957905.937291
2591.72; 878.78791; 12958800.505458
2592.74; 894.55154; 12959711.120326
2593.75; 911.82007; 12960639.31381
2594.77; 930.30096; 12961586.320047
2595.79; 949.06649; 12962552.428779
2596.81; 966.80773; 12963536.59733
2597.83; 982.20878; 12964536.443486
2598.84; 994.31556; 12965548.613819
2599.86; 1002.7877; 12966569.408469
2600.88; 1007.9703; 12967595.478751
2601.90; 1010.7839; 12968624.413142
2602.92; 1012.4882; 12969655.0824
2603.93; 1014.4024; 12970687.700304
2604.95; 1017.6657; 12971723.640111
2605.97; 1023.0892; 12972765.100819
2606.99; 1031.1122; 12973814.728555
2608.01; 1041.8354; 12974875.272058
2609.02; 1055.0883; 12975949.306437
2610.04; 1070.4916; 12977039.020671
2611.06; 1087.501; 12978146.049779
2612.08; 1105.4461; 12979271.346234
2613.10; 1123.5918; 12980415.114244
2614.11; 1141.2449; 12981576.852328
2615.13; 1157.8978; 12982755.542313
2616.15; 1173.366; 12983949.97829
2617.17; 1187.8512; 12985159.159572
2618.19; 1201.8668; 12986382.608123
2619.20; 1216.0065; 12987620.450302
2620.22; 1230.6031; 12988873.15112
2621.24; 1245.3911; 12990140.905482
2622.26; 1259.3224; 12991422.841375
2623.27; 1270.6583; 12992716.316665
2624.29; 1277.3786; 12994016.632951
2625.31; 1277.8306; 12995317.409348
2626.33; 1271.4231; 12996611.663156
2627.35; 1259.1164; 12997893.389357
2628.36; 1243.4884; 12999159.206857
2629.38; 1228.2755; 13000409.538286
2630.40; 1217.4683; 13001648.868529
2631.42; 1214.2076; 13002884.879435
2632.44; 1219.8279; 13004126.611624
2633.45; 1233.3817; 13005382.140982
2634.47; 1251.8353; 13006656.455256
2635.49; 1270.9182; 13007950.195094
2636.51; 1286.3845; 13009259.678979
2637.53; 1295.2993; 13010578.23775
2638.54; 1296.9459; 13011898.472664
2639.56; 1293.0686; 13013214.76074
2640.58; 1287.3819; 13014525.259979
2641.60; 1284.5097; 13015832.835449
2642.62; 1288.6953; 13017144.671663
2643.63; 1302.672; 13018470.735567
2644.65; 1327.0088; 13019821.573283
2645.67; 1360.0693; 13021206.06517
2646.69; 1398.5212; 13022629.699376
2647.71; 1438.1757; 13024093.700175
2648.72; 1474.8763; 13025595.060582
2649.74; 1505.196; 13027127.285154
2650.76; 1526.8209; 13028681.522967
2651.78; 1538.6285; 13030247.780432
2652.80; 1540.5667; 13031816.010868
2653.81; 1533.4649; 13033377.011988
2654.83; 1518.8689; 13034923.154968
2655.85; 1498.9127; 13036448.983392
2656.87; 1476.1754; 13037951.666249
2657.89; 1453.4472; 13039431.212825
2658.90; 1433.3652; 13040890.316745
2659.92; 1417.9535; 13042333.732199
2660.94; 1408.181; 13043767.199659
2661.96; 1403.6871; 13045196.092521
2662.98; 1402.8048; 13046624.087266
2663.99; 1402.9284; 13048052.20784
2665.01; 1401.1612; 13049478.52951
2666.03; 1395.0804; 13050898.661166
2667.05; 1383.4068; 13052306.909583
2668.06; 1366.3897; 13053697.835322
2669.08; 1345.7988; 13055067.800467
2670.10; 1324.5307; 13056416.115581
2671.12; 1305.9431; 13057745.509319
2672.14; 1293.0983; 13059061.827565
2673.15; 1288.1043; 13060373.06218
2674.17; 1291.7031; 13061687.960198
2675.19; 1303.1794; 13063014.540617
2676.21; 1320.5874; 13064358.841636
2677.23; 1341.2244; 13065724.150212
2678.24; 1362.2402; 13067110.851978
2679.26; 1381.2521; 13068516.907044
2680.28; 1396.8368; 13069938.826674
2681.30; 1408.7918; 13071372.915948
2682.32; 1418.0976; 13072816.478098
2683.33; 1426.5736; 13074268.668444
2684.35; 1436.2957; 13075730.755525
2685.37; 1448.9205; 13077205.69408
2686.39; 1465.11; 13078697.112805
2687.41; 1484.2511; 13080208.016351
2688.42; 1504.5937; 13081739.627827
2689.44; 1523.8056; 13083290.796183
2690.46; 1539.7931; 13084858.239087
2691.48; 1551.5181; 13086437.617592
2692.50; 1559.5066; 13088025.127969
2693.51; 1565.8163; 13089619.061369
2694.53; 1573.4092; 13091220.72403
2695.55; 1585.0884; 13092834.27565
2696.57; 1602.3484; 13094465.397201
2697.59; 1624.5619; 13096119.131072
2698.60; 1648.854; 13097797.593275
2699.62; 1670.8041; 13099498.399741
2700.64; 1685.8319; 13101214.503824
2701.66; 1690.8703; 13102935.736787
2702.68; 1685.791; 13104651.799231
2703.69; 1674.0861; 13106355.946637
2704.71; 1662.5172; 13108048.317421
2705.73; 1659.7503; 13109737.871622
2706.75; 1674.3072; 13111442.244089
2707.77; 1712.3741; 13113185.36708
2708.78; 1776.0571; 13114993.31653
2709.80; 1862.546; 13116889.307972
2710.82; 1964.4006; 13118888.983
2711.84; 2070.8705; 13120997.039846
2712.86; 2169.9109; 13123205.915473
2713.87; 2250.4063; 13125496.731956
2714.89; 2304.1079; 13127842.21442
2715.91; 2326.897; 13130210.895167
2716.93; 2319.1787; 13132571.719016
2717.94; 2285.4237; 13134898.181674
2718.96; 2233.0558; 13137171.336142
2719.98; 2171.0021; 13139381.322617
2721.00; 2108.2464; 13141527.426506
2722.02; 2052.6737; 13143616.959779
2723.03; 2010.367; 13145663.426609
2724.05; 1985.3687; 13147684.446244
2725.07; 1979.7845; 13149699.781476
2726.09; 1994.0332; 13151729.621189
2727.11; 2027.0567; 13153793.077438
2728.12; 2076.4013; 13155906.764406
2729.14; 2138.2127; 13158083.372711
2730.16; 2207.3102; 13160330.31929
2731.18; 2277.5412; 13162648.757949
2732.20; 2342.5387; 13165033.361244
2733.21; 2396.8285; 13167473.22921
2734.23; 2437.0217; 13169954.012136
2735.25; 2462.6862; 13172460.920468
2736.27; 2476.4993; 13174981.889876
2737.29; 2483.475; 13177509.960298
2738.30; 2489.3891; 13180044.050948
2739.32; 2498.8603; 13182587.782866
2740.34; 2513.7578; 13185146.679841
2741.36; 2532.5604; 13187724.71709
2742.38; 2550.9901; 13190321.514966
2743.39; 2563.7674; 13192931.319498
2744.41; 2566.8724; 13195544.284808
2745.43; 2559.4439; 13198149.688211
2746.45; 2544.5313; 13200739.911294
2747.47; 2528.3362; 13203313.64846
2748.48; 2518.1782; 13205877.045242
2749.50; 2519.9675; 13208442.263427
2750.52; 2536.2144; 13211024.020224
2751.54; 2565.4386; 13213635.526004
2752.56; 2603.2931; 13216285.566068
2753.57; 2645.0026; 13218978.06454
2754.59; 2688.1242; 13221714.458997
2755.61; 2734.4304; 13224497.991134
2756.63; 2789.9916; 13227338.082185
2757.65; 2863.2242; 13230252.720846
2758.66; 2961.4884; 13233267.388237
2759.68; 3087.4562; 13236410.285417
2760.70; 3236.6468; 13239705.052207
2761.72; 3397.1672; 13243163.221858
2762.73; 3551.9229; 13246778.926054
2763.75; 3682.6745; 13250527.729822
2764.77; 3774.6536; 13254370.164348
2765.79; 3820.256; 13258259.020122
2766.81; 3820.6814; 13262148.308944
2767.82; 3785.1192; 13266001.39693
2768.84; 3727.9142; 13269796.252678
2769.86; 3664.7674; 13273526.827772
2770.88; 3609.2213; 13277200.859334
2771.90; 3570.4182; 13280835.390979
2772.91; 3552.5476; 13284451.731176
2773.93; 3555.7609; 13288071.342296
2774.95; 3577.876; 13291713.465634
2775.97; 3616.0714; 13295394.470328
2776.99; 3667.9619; 13299128.297294
2778.00; 3731.8394; 13302927.148787
2779.02; 3806.2562; 13306801.75331
2780.04; 3889.3603; 13310760.954304
2781.06; 3978.4062; 13314810.800168
2782.08; 4069.685; 13318953.563893
2783.09; 4158.8757; 13323187.119919
2784.11; 4241.6228; 13327504.908846
2785.13; 4314.0864; 13331896.462643
2786.15; 4373.2889; 13336348.282006
2787.17; 4417.2253; 13340844.826784
2788.18; 4444.84; 13345369.482089
2789.20; 4456.012; 13349905.510033
2790.22; 4451.6406; 13354437.088024
2791.24; 4433.8036; 13358950.508774
2792.26; 4405.8606; 13363435.484728
2793.27; 4372.3356; 13367886.333708
2794.29; 4338.4796; 13372302.718718
2795.31; 4309.5383; 13376689.642756
2796.33; 4289.8927; 13381056.568458
2797.35; 4282.3218; 13385415.787242
2798.36; 4287.6293; 13389780.408827
2799.38; 4304.7767; 13394162.485731
2800.40; 4331.5065; 13398571.772395
2801.42; 4365.2852; 13403015.444406
2802.44; 4404.2892; 13407498.820715
2803.45; 4448.1274; 13412026.822459
2804.47; 4498.0589; 13416605.652351
2805.49; 4556.5843; 13421244.058565
2806.51; 4626.4619; 13425953.597181
2807.52; 4709.3698; 13430747.532378
2808.54; 4804.5725; 13435638.379858
2809.56; 4908.0203; 13440634.532778
2810.58; 5012.2658; 13445736.803036
2811.60; 5107.4232; 13450935.939469
2812.61; 5183.1272; 13456212.139311
2813.63; 5231.1242; 13461537.198007
2814.65; 5247.8538; 13466879.286747
2815.67; 5236.2412; 13472209.554312
2816.69; 5206.0107; 13477509.048587
2817.70; 5172.1646; 13482774.088921
2818.72; 5151.7733; 13488018.371806
2819.74; 5159.7681; 13493270.793038
2820.76; 5204.819; 13498569.074206
2821.78; 5286.4874; 13503950.490272
2822.79; 5394.5795; 13509441.939391
2823.81; 5511.0568; 13515051.957435
2824.83; 5614.1325; 13520766.902104
2825.85; 5683.5255; 13526552.485797
2826.87; 5705.4711; 13532360.409128
2827.88; 5676.1216; 13538138.45601
2828.90; 5602.4158; 13543841.473551
2829.92; 5500.2175; 13549440.457649
2830.94; 5390.3035; 13554927.554019
2831.96; 5293.3703; 13560315.976522
2832.97; 5225.4614; 13565635.270781
2833.99; 5195.0219; 13570923.578886
2835.01; 5202.2387; 13576219.233357
2836.03; 5240.6142; 13581553.952491
2837.05; 5300.06; 13586949.184904
2838.06; 5370.4037; 13592416.024083
2839.08; 5444.179; 13597957.96338
2840.10; 5517.9073; 13603574.954943
2841.12; 5591.6461; 13609267.009418
2842.14; 5667.1868; 13615035.960983
2843.15; 5745.717; 13620884.852957
2844.17; 5825.8932; 13626815.360825
2845.19; 5903.0603; 13632824.421457
2846.21; 5969.9061; 13638901.528217
2847.23; 6018.3059; 13645027.903948
2848.24; 6041.6994; 13651178.093268
2849.26; 6037.179; 13657323.680985
2850.28; 6006.6054; 13663438.146121
2851.30; 5956.427; 13669501.531754
2852.32; 5896.3194; 13675503.730434
2853.33; 5837.1183; 13681445.664982
2854.35; 5788.6664; 13687338.277547
2855.37; 5758.1166; 13693199.791818
2856.39; 5748.9937; 13699052.019347
2857.40; 5761.0333; 13704916.502668
2858.42; 5790.6245; 13710811.108551
2859.44; 5831.6235; 13716747.449652
2860.46; 5876.3747; 13722729.345548
2861.48; 5916.8791; 13728752.47313
2862.49; 5946.0961; 13734805.342356
2863.51; 5959.3033; 13740871.65598
2864.53; 5955.2939; 13746933.888142
2865.55; 5937.0606; 13752977.55964
2866.57; 5911.6105; 13758995.324058
2867.58; 5888.7329; 13764989.800009
2868.60; 5878.8837; 13770974.249974
2869.62; 5890.7172; 13776970.745853
2870.64; 5929.019; 13783006.231383
2871.66; 5993.751; 13789107.611255
2872.67; 6080.5622; 13795297.361194
2873.69; 6182.5925; 13801590.973594
2874.71; 6292.8843; 13807996.858288
2875.73; 6406.4656; 13814518.363809
2876.75; 6521.2934; 13821156.759085
2877.76; 6637.722; 13827913.673686
2878.78; 6756.7927; 13834791.797082
2879.80; 6878.16; 13841793.467187
2880.82; 6998.6413; 13848917.782008
2881.84; 7112.1109; 13856157.603958
2882.85; 7210.8728; 13863497.961357
2883.87; 7287.9836; 13870916.81414
2884.89; 7339.5598; 13878388.169252
2885.91; 7366.0956; 13885886.536734
2886.93; 7372.2333; 13893391.152069
2887.94; 7365.1009; 13900888.507011
2888.96; 7351.9526; 13908372.477526
2889.98; 7338.131; 13915842.378223
2891.00; 7326.2068; 13923300.140582
2892.02; 7316.5968; 13930748.120408
2893.03; 7309.285; 13938188.657155
2894.05; 7305.7702; 13945625.615962
2895.07; 7310.2669; 13953067.152227
2896.09; 7329.5291; 13960528.296613
2897.11; 7371.287; 13968031.948681
2898.12; 7441.9012; 13975607.483
2899.14; 7544.1736; 13983287.126157
2900.16; 7676.1631; 13991101.128934
2901.18; 7831.4093; 13999073.165661
2902.19; 8000.3696; 14007217.196653
2903.21; 8172.4171; 14015536.364564
2904.23; 8337.6181; 14024023.699998
2905.25; 8487.7459; 14032663.859067
2906.27; 8616.4515; 14041435.03487
2907.28; 8718.9575; 14050310.55737
2908.30; 8791.8444; 14059260.275568
2909.32; 8833.3634; 14068252.258301
2910.34; 8844.3152; 14077255.389576
2911.36; 8829.0864; 14086243.018579
2912.37; 8796.173; 14095197.143079
2913.39; 8757.599; 14104112.000908
2914.41; 8727.0372; 14112995.74824
2915.43; 8716.995; 14121869.272963
2916.45; 8735.8874; 14130762.029325
2917.46; 8785.9734; 14139705.771137
2918.48; 8862.8889; 14148727.80954
2919.50; 8956.9761; 14157845.624712
2920.52; 9055.9971; 14167064.239007
2921.54; 9148.3694; 14176376.884329
2922.55; 9225.9587; 14185768.512155
2923.57; 9285.708; 14195220.962214
2924.59; 9329.8564; 14204718.35347
2925.61; 9364.9808; 14214251.499775
2926.63; 9400.3923; 14223820.693486
2927.64; 9446.4385; 14233436.760242
2928.66; 9513.0446; 14243120.629114
2929.68; 9608.5315; 14252901.699574
2930.70; 9738.5429; 14262815.116042
2931.72; 9904.9186; 14272897.895805
2932.73; 10104.566; 14283183.908383
2933.75; 10328.684; 14293698.06265
2934.77; 10562.887; 14304450.62579
2935.79; 10788.761; 14315433.118893
2936.81; 10986.986; 14326617.396186
2937.82; 11141.63; 14337959.094277
2938.84; 11244.604; 14349405.616139
2939.86; 11298.916; 14360907.424926
2940.88; 11319.41; 14372430.096019
2941.90; 11330.253; 14383963.804349
2942.91; 11359.305; 14395527.086183
2943.93; 11430.578; 14407162.921371
2944.95; 11556.759; 14418927.203478
2945.97; 11734.056; 14430871.966043
2946.99; 11941.223; 14443027.615757
2948.00; 12143.564; 14455389.240263
2949.02; 12301.296; 14467911.429186
2950.04; 12380.271; 14480514.010653
2951.06; 12362.155; 14493098.150739
2952.07; 12251.073; 14505569.214807
2953.09; 12074.54; 14517860.575182
2954.11; 11878.041; 14529951.908634
2955.13; 11714.494; 14541876.757912
2956.15; 11631.341; 14553716.960727
2957.16; 11658.867; 14565585.183799
2958.18; 11803.024; 14577600.153189
2959.20; 12044.77; 14589861.209142
2960.22; 12345.986; 14602428.890424
2961.24; 12660.117; 14615316.343379
2962.25; 12944.286; 14628493.06748
2963.27; 13169.359; 14641898.906197
2964.29; 13325.226; 14655463.411021
2965.31; 13420.195; 14669124.589979
2966.33; 13475.299; 14682841.862608
2967.34; 13515.827; 14696600.391155
2968.36; 13563.021; 14710406.961031
2969.38; 13628.513; 14724280.199231
2970.40; 13712.88; 14738239.319266
2971.42; 13808.159; 14752295.429508
2972.43; 13902.896; 14766447.977394
2973.45; 13987.649; 14780686.800314
2974.47; 14059.08; 14794998.336731
2975.49; 14121.548; 14809373.463403
2976.51; 14186.207; 14823814.409594
2977.52; 14268.426; 14838339.051562
2978.54; 14384.74; 14852982.095975
2979.56; 14550.275; 14867793.647635
2980.58; 14777.053; 14882836.050378
2981.60; 15072.945; 14898179.65768
2982.61; 15440.7; 14913897.624411
2983.63; 15876.648; 14930059.367001
2984.65; 16369.093; 14946722.397591
2985.67; 16897.096; 14963922.91201
2986.69; 17430.662; 14981666.573827
2987.70; 17933.302; 14999921.901344
2988.72; 18367.27; 15018618.989911
2989.74; 18700.834; 15037655.632287
2990.76; 18915.938; 15056911.240575
2991.78; 19014.06; 15076266.733005
2992.79; 19018.183; 15095626.422564
2993.81; 18969.625; 15114936.682108
2994.83; 18919.878; 15134196.301208
2995.85; 18919.09; 15153455.118191
2996.86; 19003.977; 15172800.34682
2997.88; 19188.356; 15192333.265446
2998.90; 19458.98; 15212141.667363
2999.92; 19778.043; 15232274.861904
3000.94; 20091.956; 15252727.606223
3001.95; 20344.264; 15273437.189138
3002.97; 20489.426; 15294294.540471
3003.99; 20503.89; 15315166.615489
3005.01; 20391.624; 15335924.408602
3006.03; 20182.759; 15356469.586756
3007.04; 19925.874; 15376753.266691
3008.06; 19676.125; 15396782.71248
3009.08; 19482.474; 15416615.030386
3010.10; 19377.343; 15436340.32901
3011.12; 19371.162; 15456059.336473
3012.13; 19452.807; 15475861.454163
3013.15; 19595.171; 15495808.492177
3014.17; 19763.823; 15515927.211544
3015.19; 19926.006; 15536211.025541
3016.21; 20057.473; 15556628.667614
3017.22; 20145.639; 15577136.058515
3018.24; 20188.791; 15597687.376403
3019.26; 20192.398; 15618242.366567
3020.28; 20164.288; 15638768.742096
3021.30; 20110.575; 15659240.439302
3022.31; 20033.679; 15679633.859547
3023.33; 19932.87; 15699924.661386
3024.35; 19806.799; 15720087.12836
3025.37; 19656.819; 15740096.921669
3026.39; 19489.723; 15759936.619057
3027.40; 19318.81; 15779602.334126
3028.42; 19162.803; 15799109.240231
3029.44; 19042.89; 15818494.080495
3030.46; 18978.703; 15837813.581231
3031.48; 18984.314; 15857138.793743
3032.49; 19065.278; 15876546.424086
3033.51; 19217.389; 15896108.897012
3034.53; 19427.349; 15915885.100168
3035.55; 19675.076; 15935913.478755
3036.57; 19937.044; 15956208.529703
3037.58; 20189.898; 15976760.974562
3038.60; 20413.637; 15997541.17586
3039.62; 20593.889; 16018504.865762
3040.64; 20723.079; 16039600.065818
3041.66; 20800.608; 16060774.187632
3042.67; 20832.352; 16081980.623233
3043.69; 20829.845; 16103184.506143
3044.71; 20809.405; 16124367.582897
3045.73; 20791.234; 16145532.162114
3046.74; 20798.256; 16166703.888941
3047.76; 20854.368; 16187932.736046
3048.78; 20981.813; 16209291.315871
3049.80; 21197.673; 16230869.632224
3050.82; 21509.97; 16252765.8535
3051.83; 21914.225; 16275073.58925
3052.85; 22391.601; 16297867.273083
3053.87; 22909.577; 16321188.234343
3054.89; 23425.601; 16345034.485689
3055.91; 23893.357; 16369356.892245
3056.92; 24270.482; 16394063.195398
3057.94; 24525.998; 16419029.60275
3058.96; 24645.649; 16444117.809749
3059.98; 24633.785; 16469193.939951
3061.00; 24511.324; 16494145.409704
3062.01; 24310.349; 16518892.295728
3063.03; 24066.778; 16543391.236884
3064.05; 23812.95; 16567631.792315
3065.07; 23571.881; 16591626.950292
3066.09; 23354.332; 16615400.652361
3067.10; 23158.992; 16638975.506609
3068.12; 22975.269; 16662363.3391
3069.14; 22787.612; 16685560.144436
3070.16; 22580.126; 16708545.73839
3071.18; 22340.455; 16731287.357901
3072.19; 22062.3; 16753745.827117
3073.21; 21746.433; 16775882.757134
3074.23; 21400.415; 16797667.456628
3075.25; 21037.384; 16819082.60613
3076.27; 20674.258; 16840128.108264
3077.28; 20329.606; 16860822.769409
3078.30; 20021.309; 16881203.598277
3079.32; 19764.108; 16901322.607347
3080.34; 19567.209; 16921241.182062
3081.36; 19432.287; 16941022.411621
3082.37; 19352.325; 16960722.243448
3083.39; 19311.802; 16980380.824986
3084.41; 19288.566; 17000015.752925
3085.43; 19257.411; 17019618.966561
3086.45; 19194.914; 17039158.560385
3087.46; 19084.581; 17058585.840804
3088.48; 18921.069; 17077846.672273
3089.50; 18712.185; 17096894.869474
3090.52; 18477.831; 17115704.50382
3091.53; 18245.737; 17134277.877192
3092.55; 18044.858; 17152646.764036
3093.57; 17898.073; 17170866.230145
3094.59; 17816.322; 17189002.476658
3095.61; 17796.038; 17207118.075553
3096.62; 17820.892; 17225258.974153
3097.64; 17867.47; 17243447.287776
3098.66; 17913.187; 17261682.139416
3099.68; 17943.764; 17279948.116895
3100.70; 17957.593; 17298228.171872
3101.71; 17965.2; 17316515.970251
3102.73; 17983.667; 17334822.56751
3103.75; 18027.735; 17353174.024112
3104.77; 18100.663; 17371599.717957
3105.79; 18188.296; 17390114.618854
3106.80; 18258.925; 17408701.41678
3107.82; 18269.648; 17427299.129712
3108.84; 18177.727; 17445803.271221
3109.86; 17953.584; 17464079.244739
3110.88; 17591.316; 17481986.444983
3111.89; 17113.245; 17499406.989703
3112.91; 16566.813; 17516271.290559
3113.93; 16014.531; 17532573.391564
3114.95; 15519.839; 17548371.917455
3115.97; 15132.949; 17563776.606484
3116.98; 14880.583; 17578924.397568
3118.00; 14762.169; 17593951.649096
3119.02; 14752.996; 17608969.562586
3120.04; 14812.736; 17624048.288528
3121.06; 14896.422; 17639212.203345
3122.07; 14964.626; 17654445.546678
3123.09; 14990.327; 17669705.052286
3124.11; 14961.355; 17684935.066083
3125.13; 14878.786; 17700081.028259
3126.15; 14752.746; 17715098.687325
3127.16; 14597.486; 17729958.29866
3128.18; 14427.262; 17744644.629231
3129.20; 14253.812; 17759154.394536
3130.22; 14085.4; 17773492.72433
3131.24; 13926.851; 17787669.658113
3132.25; 13779.845; 17801696.946132
3133.27; 13643.042; 17815584.973739
3134.29; 13512.023; 17829339.630117
3135.31; 13379.456; 17842959.339317
3136.33; 13235.975; 17856432.990792
3137.34; 13072.085; 17869739.809713
3138.36; 12880.935; 17882852.045396
3139.38; 12661.279; 17895740.681298
3140.40; 12419.665; 17908383.36457
3141.41; 12170.852; 17920772.766995
3142.43; 11935.915; 17932923.013163
3143.45; 11738.139; 17944871.932189
3144.47; 11597.586; 17956677.774302
3145.49; 11525.75; 17968410.490302
3146.50; 11521.903; 17980139.290256
3147.52; 11572.378; 17991919.471686
3148.54; 11653.267; 18003781.99495
3149.56; 11736.023; 18015728.759452
3150.58; 11794.53; 18027735.081906
3151.59; 11811.702; 18039758.884638
3152.61; 11783.672; 18051754.154245
3153.63; 11720.319; 18063684.933439
3154.65; 11641.902; 18075535.886943
3155.67; 11572.736; 18087316.432727
3156.68; 11533.736; 18099057.278109
3157.70; 11535.954; 18110800.381603
3158.72; 11576.939; 18122585.205642
3159.74; 11640.841; 18134435.079605
3160.76; 11702.092; 18146347.304042
3161.77; 11731.455; 18158289.418577
3162.79; 11702.706; 18170202.267797
3163.81; 11598.186; 18182008.720927
3164.83; 11412.014; 18193625.658744
3165.85; 11150.537; 18204976.424475
3166.86; 10830.419; 18216001.32322
3167.88; 10475.239; 18226664.66459
3168.90; 10111.636; 18236957.874208
3169.92; 9765.7645; 18246899.001066
3170.94; 9460.4648; 18256529.34603
3171.95; 9213.1852; 18265907.970993
3172.97; 9034.5048; 18275104.70705
3173.99; 8927.1721; 18284192.183022
3175.01; 8885.73; 18293237.472689
3176.03; 8896.9564; 18302294.190395
3177.04; 8941.35; 18311396.098902
3178.06; 8995.7015; 18320553.33487
3179.08; 9036.4721; 18329752.073509
3180.10; 9043.3871; 18338957.851362
3181.12; 9002.4924; 18348122.000121
3182.13; 8907.9972; 18357189.95687
3183.15; 8762.5313; 18366109.835632
3184.17; 8575.8601; 18374839.691135
3185.19; 8362.489; 18383352.344057
3186.20; 8138.8083; 18391637.299688
3187.22; 7920.4267; 18399699.952299
3188.24; 7720.1504; 18407558.732314
3189.26; 7546.7837; 18415241.032507
3190.28; 7404.6779; 18422778.675071
3191.29; 7293.8244; 18430203.47361
3192.31; 7210.2959; 18437543.243678
3193.33; 7146.9365; 18444818.516644
3194.35; 7094.3163; 18452040.224527
3195.37; 7042.0023; 18459208.678988
3196.38; 6980.1399; 18466314.160159
3197.40; 6901.1908; 18473339.274549
3198.42; 6801.5088; 18480262.917029
3199.44; 6682.3339; 18487065.244594
3200.46; 6549.8121; 18493732.670676
3201.47; 6413.8285; 18500261.671295
3202.49; 6285.7356; 18506660.278903
3203.51; 6175.3978; 18512946.567409
3204.53; 6088.2468; 18519144.139954
3205.55; 6023.1616; 18525275.458517
3206.56; 5971.8823; 18531354.577029
3207.58; 5920.3405; 18537381.228191
3208.60; 5851.7945; 18543338.102427
3209.62; 5751.1287; 18549192.503237
3210.64; 5609.2542; 18554902.481931
3211.65; 5426.3863; 18560426.309055
3212.67; 5213.1597; 18565733.080679
3213.69; 4989.0565; 18570811.724859
3214.71; 4778.3545; 18575675.883579
3215.73; 4604.5379; 18580363.104439
3216.74; 4484.6188; 18584928.252888
3217.76; 4424.9231; 18589432.63365
3218.78; 4419.5173; 18593931.511595
3219.80; 4451.7149; 18598463.165267
3220.82; 4498.2001; 18603042.138861
3221.83; 4534.5564; 18607658.121576
3222.85; 4540.6138; 18612280.270518
3223.87; 4504.1689; 18616865.320124
3224.89; 4422.2169; 18621366.946092
3225.91; 4299.6645; 18625743.818964
3226.92; 4146.2679; 18629964.540753
3227.94; 3973.0065; 18634008.889934
3228.96; 3789.1174; 18637866.047976
3229.98; 3600.6139; 18641531.317556
3231.00; 3410.4669; 18645003.025712
3232.01; 3220.003; 18648280.84981
3233.03; 3030.6858; 18651365.957181
3234.05; 2845.4247; 18654262.476757
3235.07; 2668.8583; 18656979.259389
3236.08; 2506.5459; 18659530.814986
3237.10; 2363.4575; 18661936.712695
3238.12; 2242.4125; 18664219.391844
3239.14; 2143.0976; 18666400.972689
3240.16; 2062.0312; 18668500.031471
3241.17; 1993.4683; 18670529.296162
3242.19; 1930.8993; 18672494.868279
3243.21; 1868.6239; 18674397.046758
3244.23; 1802.911; 18676232.332318
3245.25; 1732.4539; 18677995.895633
3246.26; 1658.1029; 18679683.772826
3247.28; 1582.0883; 18681294.270458
3248.30; 1507.071; 18682828.403698
3249.32; 1435.3399; 18684289.517827
3250.34; 1368.359; 18685682.448274
3251.35; 1306.7032; 18687012.615709
3252.37; 1250.2869; 18688285.353859
3253.39; 1198.7164; 18689505.595437
3254.41; 1151.5976; 18690677.872112
3255.43; 1108.6942; 18691806.474954
3256.44; 1069.9083; 18692895.595451
3257.46; 1035.1312; 18693949.314359
3258.48; 1004.0517; 18694971.395679
3259.50; 976.01749; 18695964.939367
3260.52; 950.01893; 18696932.017646
3261.53; 924.82225; 18697873.446791
3262.55; 899.2286; 18698788.8227
3263.57; 872.39256; 18699676.88068
3264.59; 844.10637; 18700536.144538
3265.61; 814.95387; 18701365.732408
3266.62; 786.26442; 18702166.115659
3267.64; 759.84798; 18702939.608118
3268.66; 737.55703; 18703690.409344
3269.68; 720.78009; 18704424.132377
3270.70; 710.00556; 18705146.887404
3271.71; 704.58771; 18705864.127291
3272.73; 702.79829; 18706579.545627
3273.75; 702.16747; 18707294.321816
3274.77; 700.03228; 18708006.924467
3275.79; 694.14652; 18708713.535669
3276.80; 683.18555; 18709408.989074
3277.82; 667.0095; 18710087.97596
3278.84; 646.62081; 18710746.208038
3279.86; 623.84187; 18711381.252142
3280.87; 600.81781; 18711992.858745
3281.89; 579.49248; 18712582.75708
3282.91; 561.20145; 18713154.035942
3283.93; 546.47792; 18713710.326886
3284.95; 535.09457; 18714255.030069
3285.96; 526.29203; 18714790.772649
3286.98; 519.09552; 18715319.189491
3288.00; 512.60934; 18715841.003679
3289.02; 506.20444; 18716356.297956
3290.04; 499.56424; 18716864.8328
3291.05; 492.60876; 18717366.287262
3292.07; 485.35712; 18717860.359871
3293.09; 477.80102; 18718346.740693
3294.11; 469.84482; 18718825.022449
3295.13; 461.33172; 18719294.638233
3296.14; 452.13499; 18719754.892138
3297.16; 442.26571; 18720205.099542
3298.18; 431.94332; 18720644.7992
3299.20; 421.59334; 18721073.963028
3300.22; 411.7687; 18721493.1258
3301.23; 403.023; 18721903.385823
3302.25; 395.78217; 18722306.274991
3303.27; 390.25882; 18722703.541625
3304.29; 386.43289; 18723096.913636
3305.31; 384.09373; 18723487.904476
3306.32; 382.91477; 18723877.695192
3307.34; 382.52406; 18724267.088176
3308.36; 382.54285; 18724656.500293
3309.38; 382.58716; 18725045.957511
3310.40; 382.24953; 18725435.071035
3311.41; 381.09138; 18725823.005614
3312.43; 378.67175; 18726208.477119
3313.45; 374.61939; 18726589.823489
3314.47; 368.73012; 18726965.174839
3315.49; 361.05311; 18727332.711327
3316.50; 351.92637; 18727690.95719
3317.52; 341.93712; 18728039.034426
3318.54; 331.8097; 18728376.802386
3319.56; 322.2516; 18728704.840607
3320.58; 313.80498; 18729024.280533
3321.59; 306.74976; 18729336.538549
3322.61; 301.08541; 18729643.030507
3323.63; 296.59017; 18729944.946502
3324.65; 292.92969; 18730243.136284
3325.67; 289.77291; 18730538.1126
3326.68; 286.8752; 18730830.139177
3327.70; 284.10608; 18731119.346908
3328.72; 281.42265; 18731405.823024
3329.74; 278.81084; 18731689.64043
3330.75; 276.22651; 18731970.827093
3331.77; 273.56498; 18732249.304441
3332.79; 270.6733; 18732524.838178
3333.81; 267.40034; 18732797.040183
3334.83; 263.66462; 18733065.439388
3335.84; 259.51201; 18733329.611415
3336.86; 255.1391; 18733589.332009
3337.88; 250.86963; 18733844.706468
3338.90; 247.08721; 18734096.230582
3339.92; 244.14189; 18734344.756487
3340.93; 242.25682; 18734591.363478
3341.95; 241.46168; 18734837.161051
3342.97; 241.57221; 18735083.071133
3343.99; 242.22242; 18735329.643104
3345.01; 242.94157; 18735576.947135
3346.02; 243.25577; 18735824.571012
3347.04; 242.78825; 18736071.718973
3348.06; 241.33322; 18736317.385781
3349.08; 238.8868; 18736560.562236
3350.10; 235.63065; 18736800.424074
3351.11; 231.87697; 18737036.464819
3352.13; 227.99229; 18737268.551136
3353.15; 224.32092; 18737496.900153
3354.17; 221.1249; 18737721.995754
3355.19; 218.55015; 18737944.470377
3356.20; 216.61932; 18738164.979501
3357.22; 215.24542; 18738384.090055
3358.24; 214.2581; 18738602.195551
3359.26; 213.43559; 18738819.463768
3360.28; 212.53874; 18739035.81903
3361.29; 211.34564; 18739250.959774
3362.31; 209.68573; 18739464.410794
3363.33; 207.46952; 18739675.60581
3364.35; 204.70773; 18739883.989449
3365.37; 201.5122; 18740089.120174
3366.38; 198.07403; 18740290.750988
3367.40; 194.62058; 18740488.866344
3368.42; 191.36044; 18740683.663017
3369.44; 188.43116; 18740875.477807
3370.46; 185.86561; 18741064.680975
3371.47; 183.58775; 18741251.565385
3372.49; 181.43964; 18741436.263104
3373.51; 179.23121; 18741618.712745
3374.53; 176.79758; 18741798.685049
3375.54; 174.04646; 18741975.856838
3376.56; 170.98327; 18742149.910425
3377.58; 167.70879; 18742320.630737
3378.60; 164.39356; 18742487.976283
3379.62; 161.23823; 18742652.109846
3380.63; 158.43131; 18742813.386087
3381.65; 156.11278; 18742972.302155
3382.67; 154.34854; 18743129.422304
3383.69; 153.11696; 18743285.288763
3384.71; 152.30736; 18743440.331079
3385.72; 151.73074; 18743594.786424
3386.74; 151.14398; 18743748.644471
3387.76; 150.28757; 18743901.630728
3388.78; 148.93411; 18744053.239227
3389.80; 146.93972; 18744202.817519
3390.81; 144.28595; 18744349.694386
3391.83; 141.09891; 18744493.32699
3392.85; 137.63569; 18744633.434185
3393.87; 134.23665; 18744770.081304
3394.89; 131.25288; 18744903.691073
3395.90; 128.96678; 18745034.973692
3396.92; 127.52756; 18745164.791249
3397.94; 126.91978; 18745293.990111
3398.96; 126.97331; 18745423.243459
3399.98; 127.41039; 18745552.941743
3400.99; 127.91448; 18745683.153162
3402.01; 128.19984; 18745813.655064
3403.03; 128.06314; 18745944.017812
3404.05; 127.40594; 18746073.711566
3405.07; 126.22814; 18746202.20636
3406.08; 124.60147; 18746329.045282
3407.10; 122.63708; 18746453.884535
3408.12; 120.45901; 18746576.506608
3409.14; 118.19007; 18746696.819003
3410.16; 115.9486; 18746814.849679
3411.17; 113.84958; 18746930.743636
3412.19; 112.00249; 18747044.757334
3413.21; 110.50168; 18747157.243274
3414.23; 109.41048; 18747268.618425
3415.25; 108.74547; 18747379.316621
3416.26; 108.46879; 18747489.733165
3417.28; 108.49412; 18747600.175496
3418.30; 108.70629; 18747710.833809
3419.32; 108.98848; 18747821.779381
3420.34; 109.24753; 18747932.988652
3421.35; 109.42826; 18748044.381895
3422.37; 109.5123; 18748155.860691
3423.39; 109.50338; 18748267.330405
3424.41; 109.40658; 18748378.701581
3425.42; 109.21148; 18748489.874155
3426.44; 108.88685; 18748600.716271
3427.46; 108.38927; 18748711.051872
3428.48; 107.68172; 18748820.667212
3429.50; 106.75367; 18748929.337844
3430.51; 105.6337; 18749036.868394
3431.53; 104.38851; 18749143.131397
3432.55; 103.10837; 18749248.091265
3433.57; 101.8841; 18749351.804887
3434.59; 100.78439; 18749454.399045
3435.60; 99.841226; 18749556.033105
3436.62; 99.048322; 18749656.860022
3437.64; 98.371697; 18749756.998165
3438.66; 97.767579; 18749856.521342
3439.68; 97.200548; 18749955.467306
3440.69; 96.655697; 18750053.858634
3441.71; 96.141584; 18750151.726618
3442.73; 95.684386; 18750249.129194
3443.75; 95.316461; 18750346.157238
3444.77; 95.063575; 18750442.927854
3445.78; 94.93437; 18750539.566947
3446.80; 94.914; 18750636.185303
3447.82; 94.962263; 18750732.852789
3448.84; 95.015764; 18750829.574737
3449.86; 94.99362; 18750926.274143
3450.87; 94.806703; 18751022.783275
3451.89; 94.370461; 18751118.848332
3452.91; 93.620673; 18751214.150137
3453.93; 92.530026; 18751308.341711
3454.95; 91.121791; 18751401.099762
3455.96; 89.476063; 18751492.182533
3456.98; 87.724716; 18751581.482509
3458.00; 86.033617; 18751669.061019
3459.02; 84.574222; 18751755.153928
3460.04; 83.490268; 18751840.143418
3461.05; 82.867598; 18751924.499057
3462.07; 82.715196; 18752008.699557
3463.09; 82.962991; 18752093.152302
3464.11; 83.477554; 18752178.12885
3465.13; 84.091786; 18752263.730659
3466.14; 84.640676; 18752349.891215
3467.16; 84.993612; 18752436.411044
3468.18; 85.075014; 18752523.013736
3469.20; 84.868949; 18752609.406664
3470.21; 84.408465; 18752695.330839
3471.23; 83.754991; 18752780.589805
3472.25; 82.975669; 18752865.055455
3473.27; 82.126157; 18752948.656339
3474.29; 81.243499; 18753031.358715
3475.30; 80.349308; 18753113.150844
3476.32; 79.459536; 18753194.037223
3477.34; 78.594965; 18753274.043505
3478.36; 77.787054; 18753353.227369
3479.38; 77.076494; 18753431.687914
3480.39; 76.505455; 18753509.567166
3481.41; 76.107497; 18753587.041313
3482.43; 75.899997; 18753664.304235
3483.45; 75.882603; 18753741.549451
3484.47; 76.042133; 18753818.957061
3485.48; 76.361244; 18753896.689512
3486.50; 76.826314; 18753974.895385
3487.52; 77.430431; 18754053.716222
3488.54; 78.169753; 18754133.289657
3489.56; 79.034774; 18754213.743647
3490.57; 80.000558; 18754295.180762
3491.59; 81.020687; 18754377.656325
3492.61; 82.028113; 18754461.157404
3493.63; 82.943128; 18754545.589929
3494.65; 83.685704; 18754630.778365
3495.66; 84.187776; 18754716.477888
3496.68; 84.401509; 18754802.394982
3497.70; 84.30171; 18754888.210486
3498.72; 83.883355; 18754973.600122
3499.74; 83.157182; 18755058.250544
3500.75; 82.146635; 18755141.872274
3501.77; 80.888015; 18755224.212783
3502.79; 79.433306; 18755305.072461
3503.81; 77.853125; 18755384.323583
3504.83; 76.236523; 18755461.929073
3505.84; 74.685344; 18755537.95553
3506.86; 73.303029; 18755612.574851
3507.88; 72.180003; 18755686.05098
3508.90; 71.379216; 18755758.711942
3509.92; 70.925379; 18755830.910917
3510.93; 70.800204; 18755902.98247
3511.95; 70.944282; 18755975.200687
3512.97; 71.264838; 18756047.745217
3513.99; 71.647997; 18756120.679786
3515.00; 71.974201; 18756193.946417
3516.02; 72.135468; 18756267.377211
3517.04; 72.052848; 18756340.723901
3518.06; 71.691459; 18756413.702713
3519.08; 71.069567; 18756486.048465
3520.09; 70.257998; 18756557.568076
3521.11; 69.367635; 18756628.181335
3522.13; 68.52579; 18756697.937632
3523.15; 67.846117; 18756767.002051
3524.17; 67.399865; 18756835.612205
3525.18; 67.197141; 18756904.015995
3526.20; 67.184685; 18756972.407105
3527.22; 67.261737; 18757040.876651
3528.24; 67.309661; 18757109.394981
3529.26; 67.226184; 18757177.828336
3530.27; 66.953415; 18757245.984023
3531.29; 66.490944; 18757313.668934
3532.31; 65.890589; 18757380.742711
3533.33; 65.235721; 18757447.149859
3534.35; 64.613153; 18757512.923261
3535.36; 64.087492; 18757578.161562
3536.38; 63.686042; 18757642.991205
3537.40; 63.397785; 18757707.527414
3538.42; 63.18465; 18757771.846661
3539.44; 62.999223; 18757835.977151
3540.45; 62.801743; 18757899.906615
3541.47; 62.570732; 18757963.600921
3542.49; 62.304969; 18758027.024691
3543.51; 62.018059; 18758090.156399
3544.53; 61.729213; 18758152.994075
3545.54; 61.45424; 18758215.551839
3546.56; 61.199576; 18758277.850367
3547.58; 60.96025; 18758339.905272
3548.60; 60.721157; 18758401.716789
3549.62; 60.460448; 18758463.262916
3550.63; 60.154188; 18758524.497284
3551.65; 59.782052; 18758585.352833
3552.67; 59.334001; 18758645.752286
3553.69; 58.817229; 18758705.625688
3554.71; 58.261492; 18758764.933373
3555.72; 57.720001; 18758823.689843
3556.74; 57.26329; 18758881.981401
3557.76; 56.965274; 18758939.969592
3558.78; 56.883698; 18758997.874741
3559.80; 57.040258; 18759055.939263
3560.81; 57.407332; 18759114.37745
3561.83; 57.907378; 18759173.324662
3562.85; 58.427557; 18759232.801394
3563.87; 58.846965; 18759292.705065
3564.88; 59.068884; 18759352.83464
3565.90; 59.047841; 18759412.942794
3566.92; 58.802104; 18759472.800798
3567.94; 58.406744; 18759532.256344
3568.96; 57.968913; 18759591.266196
3569.97; 57.593299; 18759649.893689
3570.99; 57.349337; 18759708.272839
3572.01; 57.251275; 18759766.552166
3573.03; 57.257668; 18759824.838002
3574.05; 57.290012; 18759883.156762
3575.06; 57.263492; 18759941.448526
3576.08; 57.118762; 18759999.592961
3577.10; 56.843681; 18760057.457375
3578.12; 56.477953; 18760114.949494
3579.14; 56.099889; 18760172.05676
3580.15; 55.800785; 18760228.859551
3581.17; 55.656265; 18760285.515227
3582.19; 55.704187; 18760342.219686
3583.21; 55.935587; 18760399.1597
3584.23; 56.30002; 18760456.47069
3585.24; 56.721745; 18760514.210979
3586.26; 57.120136; 18760572.356812
3587.28; 57.427523; 18760630.815552
3588.30; 57.599911; 18760689.449777
3589.32; 57.619502; 18760748.103943
3590.33; 57.491067; 18760806.627368
3591.35; 57.235785; 18760864.890928
3592.37; 56.885819; 18760922.798236
3593.39; 56.481152; 18760980.293612
3594.41; 56.06816; 18761037.36858
3595.42; 55.698032; 18761094.066773
3596.44; 55.42318; 18761150.485179
3597.46; 55.290934; 18761206.768964
3598.48; 55.335559; 18761263.098175
3599.50; 55.570917; 18761319.66697
3600.51; 55.986376; 18761376.658685
3601.53; 56.547651; 18761434.221754
3602.55; 57.20263; 18761492.451563
3603.57; 57.890546; 18761551.38164
3604.59; 58.551939; 18761610.984987
3605.60; 59.136862; 18761671.183761
3606.62; 59.609769; 18761731.863934
3607.64; 59.950806; 18761792.891267
3608.66; 60.154352; 18761854.125802
3609.67; 60.226148; 18761915.433421
3610.69; 60.180168; 18761976.694236
3611.71; 60.035877; 18762037.808168
3612.73; 59.815936; 18762098.698209
3613.75; 59.544215; 18762159.31165
3614.76; 59.244047; 18762219.619533
3615.78; 58.936916; 18762279.614771
3616.80; 58.64185; 18762339.309643
3617.82; 58.375556; 18762398.73344
3618.84; 58.152891; 18762457.930573
3619.85; 57.986818; 18762516.958652
3620.87; 57.887044; 18762575.885165
3621.89; 57.857124; 18762634.781221
3622.91; 57.890907; 18762693.711666
3623.93; 57.970142; 18762752.722769
3624.94; 58.065456; 18762811.830897
3625.96; 58.142108; 18762871.017054
3626.98; 58.17019; 18762930.231797
3628.00; 58.136687; 18762989.412435
3629.02; 58.055145; 18763048.510068
3630.03; 57.968417; 18763107.519415
3631.05; 57.941586; 18763166.50145
3632.07; 58.045373; 18763225.589134
3633.09; 58.333995; 18763284.970623
3634.11; 58.824278; 18763344.8512
3635.12; 59.483397; 18763405.402732
3636.14; 60.230574; 18763466.714857
3637.16; 60.953784; 18763528.763178
3638.18; 61.53746; 18763591.405657
3639.20; 61.893089; 18763654.410151
3640.21; 61.98311; 18763717.506282
3641.23; 61.830231; 18763780.44679
3642.25; 61.508818; 18763843.060112
3643.27; 61.120777; 18763905.278425
3644.29; 60.763508; 18763967.133054
3645.30; 60.500137; 18764028.719583
3646.32; 60.341578; 18764090.144706
3647.34; 60.246156; 18764151.472693
3648.36; 60.13686; 18764212.689421
3649.38; 59.930656; 18764273.696242
3650.39; 59.570508; 18764334.336448
3651.41; 59.049918; 18764394.446717
3652.43; 58.422189; 18764453.917984
3653.45; 57.791333; 18764512.747067
3654.47; 57.28714; 18764571.062903
3655.48; 57.031669; 18764629.118681
3656.50; 57.106897; 18764687.251038
3657.52; 57.532861; 18764745.817008
3658.54; 58.262368; 18764805.125584
3659.55; 59.193448; 18764865.381959
3660.57; 60.195453; 18764926.658333
3661.59; 61.140806; 18764988.897035
3662.61; 61.933003; 18765051.94216
3663.63; 62.522997; 18765115.587872
3664.64; 62.9101; 18765179.62764
3665.66; 63.128696; 18765243.889928
3666.68; 63.226667; 18765308.251947
3667.70; 63.243931; 18765372.63154
3668.72; 63.19897; 18765436.965364
3669.73; 63.08782; 18765501.186043
3670.75; 62.895034; 18765565.210474
3671.77; 62.611314; 18765628.94609
3672.79; 62.249766; 18765692.313665
3673.81; 61.853184; 18765755.277537
3674.82; 61.488227; 18765817.869898
3675.84; 61.227609; 18765880.196963
3676.86; 61.126426; 18765942.421027
3677.88; 61.201463; 18766004.721475
3678.90; 61.421709; 18766067.246125
3679.91; 61.714442; 18766130.068764
3680.93; 61.985599; 18766193.167429
3681.95; 62.147913; 18766256.431323
3682.97; 62.147404; 18766319.694698
3683.99; 61.97938; 18766382.787033
3685.00; 61.688865; 18766445.583635
3686.02; 61.355834; 18766508.041227
3687.04; 61.070706; 18766570.208571
3688.06; 60.90845; 18766632.210744
3689.08; 60.909438; 18766694.213924
3690.09; 61.072182; 18766756.38277
3691.11; 61.358661; 18766818.843239
3692.13; 61.708815; 18766881.66015
3693.15; 62.058382; 18766944.832906
3694.17; 62.354231; 18767008.306822
3695.18; 62.563298; 18767071.993559
3696.20; 62.674172; 18767135.793162
3697.22; 62.692982; 18767199.611913
3698.24; 62.636679; 18767263.373349
3699.26; 62.526728; 18767327.02286
3700.27; 62.385087; 18767390.528187
3701.29; 62.232795; 18767453.878487
3702.31; 62.090309; 18767517.083742
3703.33; 61.97835; 18767580.175028
3704.34; 61.918283; 18767643.205169
3705.36; 61.931745; 18767706.249013
3706.38; 62.039782; 18767769.402834
3707.40; 62.261877; 18767832.782737
3708.42; 62.614951; 18767896.522056
3709.43; 63.111953; 18767960.767301
3710.45; 63.759359; 18768025.671576
3711.47; 64.553155; 18768091.383902
3712.49; 65.473597; 18768158.033199
3713.51; 66.480065; 18768225.707037
3714.52; 67.508188; 18768294.427459
3715.54; 68.471586; 18768364.128578
3716.56; 69.269865; 18768434.642312
3717.58; 69.802871; 18768505.698623
3718.60; 69.989115; 18768576.944521
3719.61; 69.784391; 18768647.98202
3720.63; 69.19561; 18768718.420164
3721.65; 68.285313; 18768787.931666
3722.67; 67.164316; 18768856.302042
3723.69; 65.973042; 18768923.459751
3724.70; 64.855447; 18768989.479797
3725.72; 63.931979; 18769054.559793
3726.74; 63.278733; 18769118.974813
3727.76; 62.918493; 18769183.023124
3728.78; 62.82597; 18769246.97725
3729.79; 62.945198; 18769311.052745
3730.81; 63.213219; 18769375.401075
3731.83; 63.582206; 18769440.125016
3732.85; 64.032788; 18769505.307631
3733.87; 64.574491; 18769571.041676
3734.88; 65.233757; 18769637.446826
3735.90; 66.034456; 18769704.667052
3736.92; 66.978454; 18769772.848228
3737.94; 68.033749; 18769842.103649
3738.96; 69.134876; 18769912.479969
3739.97; 70.195875; 18769983.936341
3740.99; 71.131556; 18770056.345195
3742.01; 71.879945; 18770129.515877
3743.03; 72.418448; 18770203.234732
3744.05; 72.768573; 18770277.31
3745.06; 72.988014; 18770351.608649
3746.08; 73.153029; 18770426.075275
3747.10; 73.336934; 18770500.729109
3748.12; 73.591301; 18770575.641878
3749.14; 73.935019; 18770650.904537
3750.15; 74.353567; 18770726.59326
3751.17; 74.807642; 18770802.744212
3752.19; 75.24783; 18770879.343255
3753.21; 75.63079; 18770956.332135
3754.22; 75.932664; 18771033.62831
3755.24; 76.156568; 18771111.15241
3756.26; 76.332732; 18771188.855838
3757.28; 76.511546; 18771266.74129
3758.30; 76.751254; 18771344.870755
3759.31; 77.103181; 18771423.358465
3760.33; 77.598119; 18771502.350002
3761.35; 78.237609; 18771581.992512
3762.37; 78.993145; 18771662.404126
3763.39; 79.814636; 18771743.651981
3764.40; 80.646872; 18771825.747016
3765.42; 81.449959; 18771908.65956
3766.44; 82.217483; 18771992.35341
3767.46; 82.985705; 18772076.829277
3768.48; 83.828807; 18772162.163385
3769.49; 84.839141; 18772248.52597
3770.51; 86.096416; 18772336.168407
3771.53; 87.634304; 18772425.376347
3772.55; 89.415184; 18772516.397145
3773.57; 91.322597; 18772609.359608
3774.58; 93.176422; 18772704.209185
3775.60; 94.76894; 18772800.679876
3776.62; 95.913077; 18772898.315249
3777.64; 96.489525; 18772996.537422
3778.66; 96.478825; 18773094.748704
3779.67; 95.96836; 18773192.440353
3780.69; 95.131409; 18773289.280022
3781.71; 94.183686; 18773385.15495
3782.73; 93.3295; 18773480.160354
3783.75; 92.712637; 18773574.537817
3784.76; 92.38546; 18773668.582229
3785.78; 92.304079; 18773762.543798
3786.80; 92.349765; 18773856.551874
3787.82; 92.369509; 18773950.580048
3788.84; 92.223823; 18774044.45992
3789.85; 91.828864; 18774137.937741
3790.87; 91.182506; 18774230.757597
3791.89; 90.368974; 18774322.749313
3792.91; 89.542347; 18774413.899558
3793.93; 88.893989; 18774504.389803
3794.94; 88.611836; 18774594.592828
3795.96; 88.840158; 18774685.028275
3796.98; 89.647412; 18774776.285471
3798.00; 91.007736; 18774868.92742
3799.01; 92.799132; 18774963.392932
3800.03; 94.818773; 18775059.914351
3801.05; 96.813291; 18775158.466104
3802.07; 98.519326; 18775258.754526
3803.09; 99.70754; 18775360.252499
3804.10; 100.22199; 18775462.274162
3805.12; 100.0071; 18775564.07707
3806.14; 99.116449; 18775664.973338
3807.16; 97.701706; 18775764.429459
3808.18; 95.984121; 18775862.137152
3809.19; 94.21556; 18775958.044527
3810.21; 92.637855; 18776052.345866
3811.23; 91.449008; 18776145.43701
3812.25; 90.781854; 18776237.84902
3813.27; 90.696582; 18776330.174227
3814.28; 91.184575; 18776422.99619
3815.30; 92.178808; 18776516.830238
3816.32; 93.566221; 18776612.076613
3817.34; 95.199676; 18776708.985776
3818.36; 96.909926; 18776807.635898
3819.37; 98.51996; 18776907.924967
3820.39; 99.863949; 18777009.582157
3821.41; 100.81065; 18777112.20305
3822.43; 101.28769; 18777215.309552
3823.45; 101.30018; 18777318.428765
3824.46; 100.9364; 18777421.177668
3825.48; 100.35567; 18777523.33541
3826.50; 99.758122; 18777624.884874
3827.52; 99.342026; 18777726.01077
3828.54; 99.258605; 18777827.051747
3829.55; 99.576; 18777928.415818
3830.57; 100.26205; 18778030.478263
3831.59; 101.19076; 18778133.486092
3832.61; 102.17115; 18778237.491909
3833.63; 102.99192; 18778342.333235
3834.64; 103.47184; 18778447.6631
3835.66; 103.505; 18778553.026723
3836.68; 103.09159; 18778657.969512
3837.70; 102.34769; 18778762.155042
3838.72; 101.49117; 18778865.468671
3839.73; 100.80458; 18778968.083382
3840.75; 100.58005; 18779070.469531
3841.77; 101.05519; 18779173.339352
3842.79; 102.35274; 18779277.530021
3843.81; 104.43831; 18779383.84371
3844.82; 107.10941; 18779492.876471
3845.84; 110.02342; 18779604.875565
3846.86; 112.76288; 18779719.663315
3847.88; 114.92597; 18779836.652997
3848.89; 116.22047; 18779954.960423
3849.91; 116.53607; 18780073.589109
3850.93; 115.97334; 18780191.644961
3851.95; 114.81919; 18780308.525938
3852.97; 113.47392; 18780424.037496
3853.98; 112.35025; 18780538.405198
3855.00; 111.77335; 18780652.185641
3856.02; 111.91082; 18780766.106031
3857.04; 112.75099; 18780880.881677
3858.06; 114.13188; 18780997.063001
3859.07; 115.80659; 18781114.949107
3860.09; 117.51996; 18781234.579354
3861.11; 119.07012; 18781355.787599
3862.13; 120.3372; 18781478.285673
3863.15; 121.27595; 18781601.739355
3864.16; 121.88368; 18781725.811678
3865.18; 122.1635; 18781850.168851
3866.20; 122.10261; 18781974.464043
3867.22; 121.67619; 18782098.325154
3868.24; 120.87414; 18782221.369815
3869.25; 119.73615; 18782343.256044
3870.27; 118.37521; 18782463.756903
3871.29; 116.97414; 18782582.831532
3872.31; 115.7505; 18782700.660545
3873.33; 114.89975; 18782817.62353
3874.34; 114.53672; 18782934.216968
3875.36; 114.65809; 18783050.933953
3876.38; 115.14185; 18783168.143386
3877.40; 115.78625; 18783286.008794
3878.42; 116.37571; 18783404.474245
3879.43; 116.75085; 18783523.321577
3880.45; 116.85808; 18783642.278058
3881.47; 116.76143; 18783761.136158
3882.49; 116.61358; 18783879.843751
3883.51; 116.59728; 18783998.534752
3884.52; 116.85903; 18784117.492205
3885.54; 117.45845; 18784237.059842
3886.56; 118.3502; 18784357.535236
3887.58; 119.40296; 18784479.0823
3888.60; 120.44688; 18784601.692026
3889.61; 121.3315; 18784725.202258
3890.63; 121.97447; 18784849.367001
3891.65; 122.38598; 18784973.950646
3892.67; 122.66377; 18785098.817075
3893.68; 122.96358; 18785223.98869
3894.70; 123.45705; 18785349.662639
3895.72; 124.29114; 18785476.185655
3896.74; 125.55946; 18785603.999771
3897.76; 127.29011; 18785733.575612
3898.77; 129.44799; 18785865.348078
3899.79; 131.9458; 18785999.663206
3900.81; 134.65743; 18786136.738656
3901.83; 137.42981; 18786276.636274
3902.85; 140.09303; 18786419.244933
3903.86; 142.47105; 18786564.274309
3904.88; 144.39619; 18786711.2634
3905.90; 145.72867; 18786859.608902
3906.92; 146.37953; 18787008.616943
3907.94; 146.3324; 18787157.577007
3908.95; 145.65838; 18787305.850952
3909.97; 144.51854; 18787452.964594
3910.99; 143.15117; 18787598.686309
3912.01; 141.84384; 18787743.077217
3913.03; 140.89333; 18787886.500547
3914.04; 140.55864; 18788029.583181
3915.06; 141.01378; 18788173.129126
3916.08; 142.30785; 18788317.99238
3917.10; 144.34036; 18788464.924639
3918.12; 146.85906; 18788614.420826
3919.13; 149.48575; 18788766.590868
3920.15; 151.77114; 18788921.087342
3921.17; 153.27376; 18789077.113413
3922.19; 153.65041; 18789233.522899
3923.21; 152.73992; 18789389.005547
3924.22; 150.6193; 18789542.329496
3925.24; 147.61502; 18789692.59522
3926.26; 144.26118; 18789839.446879
3927.28; 141.20941; 18789983.191965
3928.30; 139.10864; 18790124.798558
3929.31; 138.48185; 18790265.767109
3930.33; 139.62857; 18790407.902966
3931.35; 142.57511; 18790553.038275
3932.37; 147.08162; 18790702.761016
3933.39; 152.6997; 18790858.202719
3934.40; 158.86223; 18791019.917612
3935.42; 164.98146; 18791187.861616
3936.44; 170.5336; 18791361.457463
3937.46; 175.11658; 18791539.718581
3938.48; 178.47797; 18791721.401449
3939.49; 180.51878; 18791905.161777
3940.51; 181.28204; 18792089.69907
3941.53; 180.93358; 18792273.881651
3942.55; 179.73776; 18792456.846936
3943.56; 178.02633; 18792638.07006
3944.58; 176.15796; 18792817.391264
3945.60; 174.46893; 18792994.993103
3946.62; 173.22169; 18793171.32531
3947.64; 172.56336; 18793346.987361
3948.65; 172.50722; 18793522.592261
3949.67; 172.94601; 18793698.643832
3950.69; 173.69576; 18793875.458616
3951.71; 174.55809; 18794053.151223
3952.73; 175.38103; 18794231.681548
3953.74; 176.09761; 18794410.94132
3954.76; 176.729; 18794590.843811
3955.78; 177.35185; 18794771.380339
3956.80; 178.04355; 18794952.620993
3957.82; 178.82773; 18795134.659909
3958.83; 179.64277; 18795317.528496
3959.85; 180.34703; 18795501.113992
3960.87; 180.75994; 18795685.119815
3961.89; 180.72333; 18795869.088362
3962.91; 180.15901; 18796052.482463
3963.92; 179.09964; 18796234.798168
3964.94; 177.67972; 18796415.668451
3965.96; 176.0895; 18796594.919962
3966.98; 174.5086; 18796772.562191
3968.00; 173.04405; 18796948.713572
3969.01; 171.69571; 18797123.492392
3970.03; 170.36139; 18797296.912931
3971.05; 168.87923; 18797468.824702
3972.07; 167.09125; 18797638.916381
3973.09; 164.90525; 18797806.782808
3974.10; 162.33427; 18797972.032093
3975.12; 159.50182; 18798134.398061
3976.14; 156.61402; 18798293.824379
3977.16; 153.91082; 18798450.49895
3978.18; 151.61329; 18798604.83474
3979.19; 149.883; 18798757.409163
3980.21; 148.80165; 18798908.882826
3981.23; 148.3712; 18799059.918303
3982.25; 148.52709; 18799211.112473
3983.27; 149.15572; 18799362.946563
3984.28; 150.10896; 18799515.751005
3985.30; 151.2139; 18799669.680227
3986.32; 152.28069; 18799824.695398
3987.34; 153.1132; 18799980.558028
3988.35; 153.52591; 18800136.840781
3989.37; 153.36627; 18800292.96103
3990.39; 152.53756; 18800448.237688
3991.41; 151.01505; 18800601.964493
3992.43; 148.84959; 18800753.48695
3993.44; 146.15687; 18800902.268334
3994.46; 143.0958; 18801047.933682
3995.48; 139.84323; 18801190.288052
3996.50; 136.57286; 18801329.313334
3997.52; 133.44339; 18801465.152944
3998.53; 130.59577; 18801598.093805
3999.55; 128.15524; 18801728.550306
4000.57; 126.23106; 18801857.048076
4001.59; 124.90895; 18801984.199997
4002.61; 124.23514; 18802110.666011
4003.62; 124.1967; 18802237.092889
4004.64; 124.70637; 18802364.038588
4005.66; 125.60071; 18802491.894687
4006.68; 126.65659; 18802620.825634
4007.70; 127.62524; 18802750.742619
4008.71; 128.27651; 18802881.322567
4009.73; 128.44239; 18803012.071375
4010.75; 128.04818; 18803142.418898
4011.77; 127.12366; 18803271.825297
4012.79; 125.7922; 18803399.876327
4013.80; 124.24193; 18803526.349255
4014.82; 122.68686; 18803651.239184
4015.84; 121.32699; 18803774.744822
4016.86; 120.31503; 18803897.220334
4017.88; 119.73408; 18804019.104462
4018.89; 119.58778; 18804140.839666
4019.91; 119.80266; 18804262.793604
4020.93; 120.24133; 18804385.194085
4021.95; 120.72525; 18804508.087178
4022.97; 121.06496; 18804631.326085
4023.98; 121.09428; 18804754.594833
4025.00; 120.70299; 18804877.465265
4026.02; 119.86114; 18804999.478735
4027.04; 118.62811; 18805120.237033
4028.06; 117.14238; 18805239.482923
4029.07; 115.59274; 18805357.151347
4030.09; 114.17706; 18805473.378667
4031.11; 113.05894; 18805588.46779
4032.13; 112.33384; 18805702.818797
4033.15; 112.01346; 18805816.843669
4034.16; 112.03172; 18805930.887127
4035.18; 112.26901; 18806045.172135
4036.20; 112.58611; 18806159.779936
4037.22; 112.85722; 18806274.663713
4038.23; 112.9933; 18806389.686014
4039.25; 112.95151; 18806504.665776
4040.27; 112.73175; 18806619.421833
4041.29; 112.36522; 18806733.804779
4042.31; 111.90089; 18806847.715058
4043.32; 111.39413; 18806961.109474
4044.34; 110.8985; 18807073.999366
4045.36; 110.45918; 18807186.442041
4046.38; 110.10546; 18807298.524644
4047.40; 109.84176; 18807410.338815
4048.41; 109.63919; 18807521.946782
4049.43; 109.43246; 18807633.344303
4050.45; 109.12724; 18807744.431126
4051.47; 108.62045; 18807855.002059
4052.49; 107.83091; 18807964.769267
4053.50; 106.73264; 18808073.418487
4054.52; 105.37987; 18808180.690652
4055.54; 103.91325; 18808286.469861
4056.56; 102.54166; 18808390.85285
4057.58; 101.50139; 18808494.176883
4058.59; 101.00188; 18808596.992436
4059.61; 101.17229; 18808699.98146
4060.63; 102.02344; 18808803.836919
4061.65; 103.43578; 18808909.130075
4062.67; 105.17673; 18809016.195452
4063.68; 106.94328; 18809125.059094
4064.70; 108.41936; 18809235.42532
4065.72; 109.33555; 18809346.72419
4066.74; 109.51889; 18809458.209696
4067.76; 108.92422; 18809569.089847
4068.77; 107.64241; 18809678.665174
4069.79; 105.8851; 18809786.45164
4070.81; 103.94845; 18809892.266681
4071.83; 102.16141; 18809996.26259
4072.85; 100.82647; 18810098.899584
4073.86; 100.16304; 18810200.861232
4074.88; 100.26502; 18810302.926696
4075.90; 101.0832; 18810405.825032
4076.92; 102.43911; 18810510.103624
4077.94; 104.0699; 18810616.042292
4078.95; 105.69504; 18810723.635286
4079.97; 107.08794; 18810832.646184
4080.99; 108.1321; 18810942.719998
4082.01; 108.84444; 18811053.518938
4083.02; 109.35705; 18811164.839695
4084.04; 109.86229; 18811276.674763
4085.06; 110.53811; 18811389.19779
4086.08; 111.47857; 18811502.678163
4087.10; 112.65357; 18811617.354632
4088.11; 113.91284; 18811733.312991
4089.13; 115.03431; 18811850.412956
4090.15; 115.80132; 18811968.293703
4091.17; 116.08288; 18812086.46107
4092.19; 115.88918; 18812204.43125
4093.20; 115.38243; 18812321.885589
4094.22; 114.83816; 18812438.785883
4095.24; 114.56796; 18812555.411124
4096.26; 114.8278; 18812672.300871
4097.28; 115.73999; 18812790.11919
4098.29; 117.25221; 18812909.476884
4099.31; 119.14501; 18813030.761367
4100.33; 121.08435; 18813154.020015
4101.35; 122.70316; 18813278.926533
4102.37; 123.68894; 18813404.83654
4103.38; 123.85514; 18813530.915732
4104.40; 123.18005; 18813656.307702
4105.42; 121.8072; 18813780.30218
4106.44; 120.01074; 18813902.467939
4107.46; 118.13616; 18814022.725453
4108.47; 116.5307; 18814141.348677
4109.49; 115.47748; 18814258.899773
4110.51; 115.14524; 18814376.11266
4111.53; 115.56195; 18814493.749735
4112.55; 116.61649; 18814612.460288
4113.56; 118.08788; 18814732.668656
4114.58; 119.69665; 18814854.514681
4115.60; 121.16833; 18814977.858815
4116.62; 122.29546; 18815102.350316
4117.64; 122.98348; 18815227.54219
4118.65; 123.26857; 18815353.024271
4119.67; 123.30173; 18815478.540114
4120.69; 123.30227; 18815604.056501
4121.71; 123.4925; 18815729.766535
4122.73; 124.03182; 18815856.025575
4123.74; 124.96883; 18815983.238453
4124.76; 126.2257; 18816111.73077
4125.78; 127.6194; 18816241.641817
4126.80; 128.91363; 18816372.870325
4127.82; 129.88592; 18816505.088584
4128.83; 130.39045; 18816637.820432
4129.85; 130.39841; 18816770.56039
4130.87; 130.00532; 18816902.9002
4131.89; 129.40433; 18817034.628221
4132.90; 128.83451; 18817165.776189
4133.92; 128.5195; 18817296.603491
4134.94; 128.61342; 18817427.526398
4135.96; 129.16789; 18817559.013738
4136.98; 130.12724; 18817691.477658
4137.99; 131.35095; 18817825.187255
4139.01; 132.65552; 18817960.224852
4140.03; 133.8637; 18818096.492327
4141.05; 134.8478; 18818233.761563
4142.07; 135.55642; 18818371.752152
4143.08; 136.01874; 18818510.213363
4144.10; 136.32607; 18818648.987417
4145.12; 136.59671; 18818788.036975
4146.14; 136.93419; 18818927.430071
4147.16; 137.39061; 18819067.287783
4148.17; 137.94586; 18819207.71072
4149.19; 138.50898; 18819348.706885
4150.21; 138.94186; 18819490.1437
4151.23; 139.09918; 18819631.740665
4152.25; 138.87339; 18819773.107779
4153.26; 138.23174; 18819913.82173
4154.28; 137.2347; 18820053.520735
4155.30; 136.02978; 18820191.993185
4156.32; 134.8224; 18820329.23657
4157.34; 133.83132; 18820465.471081
4158.35; 133.24057; 18820601.104232
4159.37; 133.15985; 18820736.655214
4160.39; 133.60257; 18820872.656868
4161.41; 134.48526; 18821009.557058
4162.43; 135.64644; 18821147.639282
4163.44; 136.879; 18821286.976195
4164.46; 137.96793; 18821427.421592
4165.48; 138.72604; 18821568.638718
4166.50; 139.02212; 18821710.157236
4167.52; 138.79843; 18821851.448052
4168.53; 138.07669; 18821992.004167
4169.55; 136.95252; 18822131.415925
4170.57; 135.57949; 18822269.429991
4171.59; 134.14435; 18822405.983147
4172.61; 132.83642; 18822541.204886
4173.62; 131.81535; 18822675.387222
4174.64; 131.18305; 18822808.92591
4175.66; 130.96566; 18822942.243305
4176.68; 131.11031; 18823075.707945
4177.69; 131.49864; 18823209.567884
4178.71; 131.97513; 18823343.912867
4179.73; 132.38451; 18823478.674588
4180.75; 132.60993; 18823613.665775
4181.77; 132.6028; 18823748.649706
4182.78; 132.39702; 18823883.424159
4183.80; 132.10347; 18824017.899792
4184.82; 131.8853; 18824152.153336
4185.84; 131.91876; 18824286.440942
4186.86; 132.34797; 18824421.165468
4187.87; 133.24369; 18824556.801798
4188.89; 134.57601; 18824693.794366
4189.91; 136.20852; 18824832.448763
4190.93; 137.9173; 18824972.842619
4191.95; 139.43235; 18825114.778737
4192.96; 140.49382; 18825257.79538
4193.98; 140.91027; 18825401.235959
4195.00; 140.60496; 18825544.365746
4196.02; 139.63704; 18825686.510232
4197.04; 138.19052; 18825827.182218
4198.05; 136.53147; 18825966.165362
4199.07; 134.94296; 18826103.531476
4200.09; 133.65402; 18826239.585504
4201.11; 132.7817; 18826374.751549
4202.13; 132.30292; 18826509.430211
4203.14; 132.06488; 18826643.866555
4204.16; 131.83252; 18826778.066367
4205.18; 131.36054; 18826911.785727
4206.20; 130.4702; 18827044.598762
4207.22; 129.10915; 18827176.026302
4208.23; 127.37676; 18827305.690352
4209.25; 125.50708; 18827433.45114
4210.27; 123.81292; 18827559.487348
4211.29; 122.6061; 18827684.295065
4212.31; 122.11499; 18827808.602858
4213.32; 122.42191; 18827933.223076
4214.34; 123.43712; 18828058.876737
4215.36; 124.9166; 18828186.03645
4216.38; 126.5186; 18828314.82693
4217.40; 127.88383; 18828445.007153
4218.41; 128.71815; 18828576.036671
4219.43; 128.85632; 18828707.206839
4220.45; 128.29139; 18828837.801941
4221.47; 127.16398; 18828967.24939
4222.49; 125.71699; 18829095.223859
4223.50; 124.23043; 18829221.685077
4224.52; 122.95557; 18829346.848537
4225.54; 122.06603; 18829471.106484
4226.56; 121.6372; 18829594.927903
4227.57; 121.65542; 18829718.76787
4228.59; 122.04922; 18829843.008707
4229.61; 122.72871; 18829967.941234
4230.63; 123.61825; 18830093.779278
4231.65; 124.67181; 18830220.689797
4232.66; 125.86798; 18830348.81797
4233.68; 127.19006; 18830478.291962
4234.70; 128.60195; 18830609.203195
4235.72; 130.03207; 18830741.570231
4236.74; 131.37365; 18830875.302942
4237.75; 132.50296; 18831010.185242
4238.77; 133.30965; 18831145.888709
4239.79; 133.72839; 18831282.018438
4240.81; 133.76022; 18831418.180573
4241.83; 133.47541; 18831554.052777
4242.84; 132.99626; 18831689.437234
4243.86; 132.46527; 18831824.281166
4244.88; 132.00833; 18831958.65995
4245.90; 131.70421; 18832092.729151
4246.92; 131.56839; 18832226.660095
4247.93; 131.55431; 18832360.576702
4248.95; 131.56951; 18832494.508788
4249.97; 131.50058; 18832628.370706
4250.99; 131.23946; 18832761.966813
4252.01; 130.70561; 18832895.019488
4253.02; 129.86119; 18833027.212581
4254.04; 128.71909; 18833158.243061
4255.06; 127.34498; 18833287.874756
4256.08; 125.85403; 18833415.988728
4257.10; 124.40156; 18833542.624151
4258.11; 123.16619; 18833668.002023
4259.13; 122.32459; 18833792.523176
4260.15; 122.01973; 18833916.733995
4261.17; 122.32824; 18834041.258868
4262.19; 123.23539; 18834166.707177
4263.20; 124.62686; 18834293.571947
4264.22; 126.30347; 18834422.143425
4265.24; 128.01847; 18834552.460707
4266.26; 129.5299; 18834684.31656
4267.28; 130.65382; 18834817.316514
4268.29; 131.30291; 18834950.977212
4269.31; 131.49807; 18835084.836576
4270.33; 131.3492; 18835218.544394
4271.35; 131.0116; 18835351.908546
4272.36; 130.63318; 18835484.887483
4273.38; 130.31104; 18835617.538503
4274.40; 130.07268; 18835749.946878
4275.42; 129.88773; 18835882.166982
4276.44; 129.70448; 18836014.200547
4277.45; 129.49527; 18836146.021145
4278.47; 129.29099; 18836277.633798
4279.49; 129.18872; 18836409.142342
4280.51; 129.32669; 18836540.791334
4281.53; 129.83406; 18836672.956803
4282.54; 130.77353; 18836806.078612
4283.56; 132.0991; 18836940.549799
4284.58; 133.64675; 18837076.596427
4285.60; 135.16444; 18837214.187997
4286.62; 136.37369; 18837353.010529
4287.63; 137.04325; 18837492.514645
4288.65; 137.05081; 18837632.026452
4289.67; 136.41277; 18837770.888766
4290.69; 135.27349; 18837908.59134
4291.71; 133.85917; 18838044.854196
4292.72; 132.41349; 18838179.645418
4293.74; 131.13678; 18838313.137005
4294.76; 130.14743; 18838445.62147
4295.78; 129.47483; 18838577.421258
4296.80; 129.08109; 18838708.820236
4297.81; 128.89898; 18838840.033832
4298.83; 128.86967; 18838971.217591
4299.85; 128.96627; 18839102.499693
4300.87; 129.19668; 18839234.016335
4301.89; 129.58803; 18839365.931357
4302.90; 130.16226; 18839498.430917
4303.92; 130.91401; 18839631.695729
4304.94; 131.80016; 18839765.862606
4305.96; 132.74418; 18839900.99045
4306.98; 133.65261; 18840037.04304
4307.99; 134.43686; 18840173.893959
4309.01; 135.03241; 18840311.351129
4310.03; 135.41008; 18840449.19275
4311.05; 135.57725; 18840587.204544
4312.07; 135.57088; 18840725.20985
4313.08; 135.44572; 18840863.087744
4314.10; 135.26152; 18841000.778131
4315.12; 135.0718; 18841138.275398
4316.14; 134.91551; 18841275.613564
4317.15; 134.81217; 18841412.846535
4318.17; 134.76125; 18841550.027676
4319.19; 134.74654; 18841687.193834
4320.21; 134.74601; 18841824.359463
4321.23; 134.74651; 18841961.525595
4322.24; 134.75988; 18842098.705335
4323.26; 134.83567; 18842235.962225
4324.28; 135.06423; 18842373.451779
4325.30; 135.56572; 18842511.451833
4326.32; 136.46416; 18842650.366455
4327.33; 137.85062; 18842790.692436
4328.35; 139.7446; 18842932.946413
4329.37; 142.06486; 18843077.562313
4330.39; 144.6204; 18843224.779644
4331.41; 147.12789; 18843374.549488
4332.42; 149.25489; 18843526.484528
4333.44; 150.68116; 18843679.871445
4334.46; 151.16434; 18843833.75022
4335.48; 150.59448; 18843987.048904
4336.50; 149.02344; 18844138.748335
4337.51; 146.66125; 18844288.043155
4338.53; 143.83945; 18844434.465505
4339.55; 140.94969; 18844577.946203
4340.57; 138.372; 18844718.802926
4341.59; 136.40964; 18844857.662054
4342.60; 135.24513; 18844995.335761
4343.62; 134.92604; 18845132.684647
4344.64; 135.38063; 18845270.49629
4345.66; 136.45523; 18845409.401825
4346.68; 137.95972; 18845549.838869
4347.69; 139.7069; 18845692.054459
4348.71; 141.53515; 18845836.13113
4349.73; 143.31182; 18845982.01638
4350.75; 144.92257; 18846129.5413
4351.77; 146.25776; 18846278.425389
4352.78; 147.20796; 18846428.276744
4353.80; 147.67558; 18846578.604107
4354.82; 147.60153; 18846728.856092
4355.84; 146.9971; 18846878.492791
4356.86; 145.96586; 18847027.079734
4357.87; 144.7019; 18847174.380028
4358.89; 143.45815; 18847320.414237
4359.91; 142.48998; 18847465.462883
4360.93; 141.9904; 18847610.002981
4361.95; 142.03856; 18847754.592111
4362.96; 142.58064; 18847899.733052
4363.98; 143.45192; 18848045.760911
4365.00; 144.43422; 18848192.788714
4366.02; 145.32957; 18848340.727947
4367.03; 146.02424; 18848489.374321
4368.05; 146.52042; 18848638.525791
4369.07; 146.92436; 18848788.088452
4370.09; 147.3957; 18848938.130914
4371.11; 148.07735; 18849088.867267
4372.12; 149.03216; 18849240.575573
4373.14; 150.20999; 18849393.482859
4374.16; 151.45732; 18849547.659878
4375.18; 152.56573; 18849702.965209
4376.20; 153.34153; 18849859.06027
4377.21; 153.67176; 18850015.49149
4378.23; 153.56351; 18850171.812514
4379.25; 153.14354; 18850327.706026
4380.27; 152.61907; 18850483.06565
4381.29; 152.21324; 18850638.012163
4382.30; 152.09638; 18850792.839715
4383.32; 152.33407; 18850947.90922
4384.34; 152.86691; 18851103.52114
4385.36; 153.52659; 18851259.80458
4386.38; 154.08227; 18851416.653678
4387.39; 154.30402; 18851573.728515
4388.41; 154.02617; 18851730.520506
4389.43; 153.19464; 18851886.466035
4390.45; 151.887; 18852041.080448
4391.47; 150.30034; 18852194.079705
4392.48; 148.7095; 18852345.459555
4393.50; 147.40514; 18852495.511622
4394.52; 146.62578; 18852644.770335
4395.54; 146.50037; 18852793.901385
4396.56; 147.01618; 18852943.557514
4397.57; 148.02139; 18853094.236905
4398.59; 149.26304; 18853246.180237
4399.61; 150.45148; 18853399.333352
4400.63; 151.33452; 18853553.385358
4401.65; 151.76074; 18853707.871245
4402.66; 151.71424; 18853862.309795
4403.68; 151.31069; 18854016.337552
4404.70; 150.75648; 18854169.801146
4405.72; 150.2834; 18854322.783165
4406.74; 150.07888; 18854475.556984
4407.75; 150.23247; 18854628.487152
4408.77; 150.71391; 18854781.907405
4409.79; 151.38782; 18854936.013676
4410.81; 152.05923; 18855090.803414
4411.82; 152.53516; 18855246.077623
4412.84; 152.68408; 18855401.503424
4413.86; 152.47674; 18855556.718171
4414.88; 151.9982; 18855711.44578
4415.90; 151.42913; 18855865.594103
4416.91; 151.00267; 18856019.308308
4417.93; 150.94817; 18856172.967028
4418.95; 151.43569; 18856327.122026
4419.97; 152.53405; 18856482.395102
4420.99; 154.19141; 18856639.355307
4422.00; 156.24271; 18856798.403642
4423.02; 158.44196; 18856959.690722
4424.04; 160.5126; 18857123.085627
4425.06; 162.20443; 18857288.202735
4426.08; 163.34411; 18857454.479987
4427.09; 163.86728; 18857621.289803
4428.11; 163.82434; 18857788.055909
4429.13; 163.35877; 18857954.348089
4430.15; 162.66402; 18858119.933046
4431.17; 161.93101; 18858284.771824
4432.18; 161.30084; 18858448.969123
4433.20; 160.83574; 18858612.692961
4434.22; 160.51527; 18858776.090583
4435.24; 160.25759; 18858939.225889
4436.26; 159.95746; 18859102.055684
4437.27; 159.52892; 18859264.449244
4438.29; 158.93932; 18859426.242608
4439.31; 158.22566; 18859587.309506
4440.33; 157.49005; 18859747.627576
4441.35; 156.8772; 18859907.321794
4442.36; 156.54204; 18860066.674836
4443.38; 156.61639; 18860226.103559
4444.40; 157.18274; 18860386.108809
4445.42; 158.25986; 18860547.210522
4446.44; 159.80113; 18860709.881177
4447.45; 161.70406; 18860874.488936
4448.47; 163.82788; 18861041.258649
4449.49; 166.01574; 18861210.255504
4450.51; 168.11847; 18861381.392849
4451.53; 170.01682; 18861554.462635
4452.54; 171.6389; 18861729.183633
4453.56; 172.9695; 18861905.25912
4454.58; 174.04833; 18862082.43281
4455.60; 174.95613; 18862260.530606
4456.62; 175.79007; 18862439.477308
4457.63; 176.63331; 18862619.282398
4458.65; 177.52632; 18862799.996531
4459.67; 178.44797; 18862981.648862
4460.69; 179.31333; 18863164.182092
4461.70; 179.99079; 18863347.404946
4462.72; 180.336; 18863530.979208
4463.74; 180.23504; 18863714.4507
4464.76; 179.64584; 18863897.322408
4465.78; 178.62632; 18864079.156293
4466.79; 177.3406; 18864259.681374
4467.81; 176.03952; 18864438.882004
4468.83; 175.01825; 18864617.043031
4469.85; 174.55972; 18864794.737294
4470.87; 174.87603; 18864972.753544
4471.88; 176.06135; 18865151.976396
4472.90; 178.0671; 18865333.241016
4473.92; 180.70548; 18865517.191394
4474.94; 183.68098; 18865704.170703
4475.96; 186.64334; 18865894.16557
4476.97; 189.25079; 18866086.814706
4477.99; 191.23018; 18866281.478772
4479.01; 192.42186; 18866477.355924
4480.03; 192.80073; 18866673.618745
4481.05; 192.47045; 18866869.545354
4482.06; 191.63414; 18867064.620637
4483.08; 190.54946; 18867258.591767
4484.10; 189.47905; 18867451.473263
4485.12; 188.64693; 18867643.507695
4486.14; 188.20892; 18867835.096257
4487.15; 188.24046; 18868026.71692
4488.17; 188.74045; 18868218.846552
4489.19; 189.64629; 18868411.898293
4490.21; 190.85353; 18868606.178952
4491.23; 192.23457; 18868801.865452
4492.24; 193.6535; 18868998.996364
4493.26; 194.97704; 18869197.474577
4494.28; 196.08383; 18869397.079458
4495.30; 196.87467; 18869597.48938
4496.32; 197.28449; 18869798.316478
4497.33; 197.2944; 18869999.153663
4498.35; 196.93966; 18870199.62974
4499.37; 196.3088; 18870399.463631
4500.39; 195.53094; 18870598.50569
4501.41; 194.75214; 18870796.754968
4502.42; 194.10616; 18870994.346665
4503.44; 193.68784; 18871191.512529
4504.46; 193.53775; 18871388.525607
4505.48; 193.64321; 18871585.646034
4506.49; 193.95504; 18871783.083894
4507.51; 194.41337; 18871980.988315
4508.53; 194.97175; 18872179.461143
4509.55; 195.60937; 18872378.583044
4510.57; 196.32573; 18872578.434168
4511.58; 197.1197; 18872779.093513
4512.60; 197.96245; 18872980.610743
4513.62; 198.77787; 18873182.958038
4514.64; 199.44261; 18873385.982013
4515.66; 199.81133; 18873589.381321
4516.67; 199.76239; 18873792.73081
4517.69; 199.24992; 18873995.558627
4518.71; 198.3426; 18874197.462834
4519.73; 197.23161; 18874398.236098
4520.75; 196.1985; 18874597.957704
4521.76; 195.5471; 18874797.01621
4522.78; 195.51623; 18874996.043291
4523.80; 196.19871; 18875195.765111
4524.82; 197.4924; 18875396.80385
4525.84; 199.10117; 18875599.480254
4526.85; 200.58963; 18875803.671842
4527.87; 201.47919; 18876008.768964
4528.89; 201.36065; 18876213.745416
4529.91; 199.99263; 18876417.32928
4530.93; 197.35895; 18876618.232178
4531.94; 193.6695; 18876815.379371
4532.96; 189.30479; 18877008.083477
4533.98; 184.72039; 18877196.12086
4535.00; 180.33754; 18877379.696696
4536.02; 176.44931; 18877559.314483
4537.03; 173.16565; 18877735.589644
4538.05; 170.40883; 18877909.058478
4539.07; 167.95587; 18878080.030309
4540.09; 165.51212; 18878248.514504
4541.11; 162.79289; 18878414.230638
4542.12; 159.59071; 18878576.687091
4543.14; 155.8127; 18878735.297693
4544.16; 151.48362; 18878889.501486
4545.18; 146.72123; 18879038.857371
4546.20; 141.69767; 18879183.099487
4547.21; 136.60214; 18879322.154573
4548.23; 131.61567; 18879456.133648
4549.25; 126.90097; 18879585.313365
4550.27; 122.60268; 18879710.117601
4551.29; 118.8487; 18879831.100444
4552.30; 115.74408; 18879948.922924
4553.32; 113.35394; 18880064.312346
4554.34; 111.67921; 18880177.996965
4555.36; 110.63515; 18880290.618772
4556.37; 110.04429; 18880402.639112
4557.39; 109.6522; 18880514.260315
4558.41; 109.16677; 18880625.387376
4559.43; 108.31333; 18880735.645677
4560.45; 106.89117; 18880844.456271
4561.46; 104.8158; 18880951.154232
4562.48; 102.13533; 18881055.123591
4563.50; 99.01688; 18881155.918502
4564.52; 95.708131; 18881253.34525
4565.54; 92.485311; 18881347.491306
4566.55; 89.601145; 18881438.701404
4567.57; 87.243986; 18881527.512018
4568.59; 85.514196; 18881614.561779
4569.61; 84.418232; 18881700.495896
4570.63; 83.877102; 18881785.879166
4571.64; 83.744578; 18881871.127533
4572.66; 83.831429; 18881956.46431
4573.68; 83.933409; 18882041.904898
4574.70; 83.86128; 18882127.272063
4575.72; 83.47026; 18882212.241185
4576.73; 82.684415; 18882296.410351
4577.75; 81.510182; 18882379.384199
4578.77; 80.033849; 18882460.855204
4579.79; 78.401064; 18882540.664105
4580.81; 76.78157; 18882618.824429
4581.82; 75.327512; 18882695.504587
4582.84; 74.136657; 18882770.972504
4583.86; 73.231113; 18882845.518617
4584.88; 72.557722; 18882919.379247
4585.90; 72.009416; 18882992.681725
4586.91; 71.460274; 18883065.4252
4587.93; 70.802869; 18883137.499466
4588.95; 69.976475; 18883208.732497
4589.97; 68.978414; 18883278.949546
4590.99; 67.856846; 18883348.024887
4592.00; 66.689292; 18883415.911708
4593.02; 65.555077; 18883482.643948
4594.04; 64.5107; 18883548.313057
4595.06; 63.574968; 18883613.029631
4596.08; 62.726906; 18883676.882914
4597.09; 61.915427; 18883739.910147
4598.11; 61.076765; 18883802.083659
4599.13; 60.154407; 18883863.318249
4600.15; 59.116445; 18883923.496239
4601.16; 57.966492; 18883982.503627
4602.18; 56.745916; 18884040.26852
4603.20; 55.526865; 18884096.792473
4604.22; 54.397316; 18884152.166593
4605.24; 53.44101; 18884206.567234
4606.25; 52.716637; 18884260.230496
4607.27; 52.241386; 18884313.409973
4608.29; 51.983621; 18884366.327056
4609.31; 51.86762; 18884419.126055
4610.33; 51.79024; 18884471.846284
4611.34; 51.645854; 18884524.419535
4612.36; 51.353012; 18884576.694685
4613.38; 50.875231; 18884628.483474
4614.40; 50.229575; 18884679.615014
4615.42; 49.480083; 18884729.983603
4616.43; 48.717622; 18884779.57604
4617.45; 48.031897; 18884828.470439
4618.47; 47.483808; 18884876.806906
4619.49; 47.086269; 18884924.738696
4620.51; 46.799119; 18884972.37818
4621.52; 46.53962; 18885019.753504
4622.54; 46.205559; 18885066.78877
4623.56; 45.704542; 18885113.314022
4624.58; 44.981418; 18885159.103165
4625.60; 44.036428; 18885203.930348
4626.61; 42.92917; 18885247.630391
4627.63; 41.767191; 18885290.147589
4628.65; 40.681928; 18885331.560036
4629.67; 39.797957; 18885372.072638
4630.69; 39.203228; 18885411.979832
4631.70; 38.927832; 18885451.606686
4632.72; 38.936742; 18885491.242609
4633.74; 39.138422; 18885531.083834
4634.76; 39.407048; 18885571.198508
4635.78; 39.612384; 18885611.522206
4636.79; 39.649336; 18885651.883519
4637.81; 39.459357; 18885692.051441
4638.83; 39.038471; 18885731.79092
4639.85; 38.43074; 18885770.911755
4640.87; 37.710402; 18885809.299317
4641.88; 36.959093; 18885846.922079
4642.90; 36.245467; 18885883.8184
4643.92; 35.612927; 18885920.070824
4644.94; 35.077694; 18885955.778402
4645.96; 34.635452; 18885991.035797
4646.97; 34.271963; 18886025.923177
4647.99; 33.972227; 18886060.505438
4649.01; 33.724387; 18886094.835408
4650.03; 33.517696; 18886128.954976
4651.04; 33.337091; 18886162.890696
4652.06; 33.158792; 18886196.644915
4653.08; 32.951005; 18886230.187615
4654.10; 32.681346; 18886263.455815
4655.12; 32.329142; 18886296.365487
4656.13; 31.897796; 18886328.836066
4657.15; 31.421411; 18886360.821707
4658.17; 30.961338; 18886392.339013
4659.19; 30.591919; 18886423.480266
4660.21; 30.37896; 18886454.404736
4661.22; 30.357747; 18886485.307612
4662.24; 30.518282; 18886516.373906
4663.26; 30.803432; 18886547.730471
4664.28; 31.121469; 18886579.410783
4665.30; 31.369608; 18886611.34369
4666.31; 31.461324; 18886643.36996
4667.33; 31.348956; 18886675.281844
4668.35; 31.034725; 18886706.873855
4669.37; 30.567253; 18886737.989999
4670.39; 30.025402; 18886768.554563
4671.40; 29.4952; 18886798.579403
4672.42; 29.047329; 18886828.148331
4673.44; 28.721785; 18886857.385869
4674.46; 28.523303; 18886886.42136
4675.48; 28.427305; 18886915.35913
4676.49; 28.392786; 18886944.261761
4677.51; 28.376899; 18886973.14822
4678.53; 28.346359; 18887002.00359
4679.55; 28.282775; 18887030.794235
4680.57; 28.181674; 18887059.481962
4681.58; 28.047275; 18887088.032879
4682.60; 27.886135; 18887116.419761
4683.62; 27.702494; 18887144.619704
4684.64; 27.496802; 18887172.610262
4685.66; 27.267222; 18887200.367117
4686.67; 27.012638; 18887227.864816
4687.69; 26.735316; 18887255.080214
4688.71; 26.441868; 18887281.996895
4689.73; 26.142227; 18887308.608554
4690.75; 25.847325; 18887334.920015
4691.76; 25.566741; 18887360.945854
4692.78; 25.307388; 18887386.707684
4693.80; 25.073631; 18887412.231558
4694.82; 24.868384; 18887437.5465
4695.83; 24.694209; 18887462.684139
4696.85; 24.553404; 18887487.678445
4697.87; 24.446674; 18887512.564104
4698.89; 24.370776; 18887537.372502
4699.91; 24.316228; 18887562.125374
4700.92; 24.26641; 18887586.827532
4701.94; 24.198965; 18887611.461034
4702.96; 24.089608; 18887635.983216
4703.98; 23.917458; 18887660.330156
4705.00; 23.670337; 18887684.425538
4706.01; 23.34837; 18887708.193171
4707.03; 22.964697; 18887731.570241
4708.05; 22.54305; 18887754.518094
4709.07; 22.112903; 18887777.028075
4710.09; 21.703636; 18887799.121439
4711.10; 21.339341; 18887820.843968
4712.12; 21.035538; 18887842.257238
4713.14; 20.798341; 18887863.429052
4714.16; 20.625831; 18887884.425258
4715.18; 20.510735; 18887905.304301
4716.19; 20.443312; 18887926.114711
4717.21; 20.413503; 18887946.894776
4718.23; 20.411849; 18887967.673158
4719.25; 20.429232; 18887988.469235
4720.27; 20.45594; 18888009.292499
4721.28; 20.480726; 18888030.140995
4722.30; 20.490496; 18888050.999435
4723.32; 20.470942; 18888071.837971
4724.34; 20.408106; 18888092.612542
4725.36; 20.290512; 18888113.267408
4726.37; 20.11131; 18888133.739853
4727.39; 19.869862; 18888153.966515
4728.41; 19.572355; 18888173.890327
4729.43; 19.23125; 18888193.46691
4730.45; 18.863699; 18888212.669341
4731.46; 18.489252; 18888231.490602
4732.48; 18.127344; 18888249.943455
4733.50; 17.795013; 18888268.05801
4734.52; 17.505201; 18888285.87755
4735.54; 17.265799; 18888303.453389
4736.55; 17.0794; 18888320.839481
4737.57; 16.943615; 18888338.08735
4738.59; 16.851763; 18888355.241717
4739.61; 16.793785; 18888372.337066
4740.63; 16.757359; 18888389.395335
4741.64; 16.729207; 18888406.424945
4742.66; 16.696607; 18888423.421371
4743.68; 16.649024; 18888440.369359
4744.70; 16.579568; 18888457.246644
4745.71; 16.485932; 18888474.028611
4746.73; 16.370405; 18888490.692977
4747.75; 16.238735; 18888507.223308
4748.77; 16.097954; 18888523.610331
4749.79; 15.953649; 18888539.850457
4750.80; 15.807465; 18888555.941774
4751.82; 15.655749; 18888571.878651
4752.84; 15.489975; 18888587.646777
4753.86; 15.299125; 18888603.220626
4754.88; 15.073554; 18888618.564854
4755.89; 14.809252; 18888633.640033
4756.91; 14.51117; 18888648.411778
4757.93; 14.194346; 18888662.861009
4758.95; 13.882165; 18888676.992454
4759.97; 13.601893; 18888690.838595
4760.98; 13.378493; 18888704.457323
4762.00; 13.22834; 18888717.923202
4763.02; 13.154609; 18888731.314027
4764.04; 13.145677; 18888744.695759
4765.06; 13.17711; 18888758.109488
4766.07; 13.21679; 18888771.56361
4767.09; 13.231846; 18888785.033058
4768.11; 13.195631; 18888798.465641
4769.13; 13.092969; 18888811.793718
4770.15; 12.922489; 18888824.948254
4771.16; 12.695681; 18888837.871909
4772.18; 12.433182; 18888850.528352
4773.20; 12.159482; 18888862.90618
4774.22; 11.897471; 18888875.017292
4775.24; 11.664114; 18888886.890857
4776.25; 11.468062; 18888898.564849
4777.27; 11.309401; 18888910.077331
4778.29; 11.181204; 18888921.459314
4779.31; 11.072227; 18888932.730363
4780.33; 10.969995; 18888943.897345
4781.34; 10.863638; 18888954.956059
4782.36; 10.746049; 18888965.895073
4783.38; 10.615156; 18888976.700844
4784.40; 10.474233; 18888987.363162
4785.42; 10.331262; 18888997.879941
4786.43; 10.197438; 18889008.260493
4787.45; 10.084974; 18889018.526562
4788.47; 10.004523; 18889028.710734
4789.49; 9.9626571; 18889038.852289
4790.50; 9.9599815; 18889048.99112
4791.52; 9.9903806; 18889059.160897
4792.54; 10.041727; 18889069.382941
4793.56; 10.098003; 18889079.662273
4794.58; 10.14241; 18889089.986809
4795.59; 10.160695; 18889100.329957
4796.61; 10.143861; 18889110.65597
4797.63; 10.08957; 18889120.926717
4798.65; 10.001914; 18889131.108234
4799.67; 9.8897662; 18889141.175589
4800.68; 9.764265; 18889151.11519
4801.70; 9.6362409; 18889160.924467
4802.72; 9.5142731; 18889170.609586
4803.74; 9.4037754; 18889180.182224
4804.76; 9.3070987; 18889189.656449
4805.77; 9.224295; 18889199.046383
4806.79; 9.1540396; 18889208.3648
4807.81; 9.0942891; 18889217.622394
4808.83; 9.0424997; 18889226.827269
4809.85; 8.9955229; 18889235.984323
4810.86; 8.9494835; 18889245.094511
4811.88; 8.8999548; 18889254.154281
4812.90; 8.8425776; 18889263.155643
4813.92; 8.7740097; 18889272.087207
4814.94; 8.6928767; 18889280.93618
4815.95; 8.6003219; 18889289.690937
4816.97; 8.4998713; 18889298.343439
4817.99; 8.3965845; 18889306.890799
4819.01; 8.2957445; 18889315.335509
4820.03; 8.2015274; 18889323.68431
4821.04; 8.1161064; 18889331.946156
4822.06; 8.0394786; 18889340.129999
4823.08; 7.9700326; 18889348.243148
4824.10; 7.9056097; 18889356.290717
4825.12; 7.8446509; 18889364.276234
4826.13; 7.7870264; 18889372.20309
4827.15; 7.7342786; 18889380.076252
4828.17; 7.6892285; 18889387.903555
4829.19; 7.6550926; 18889395.696109
4830.21; 7.6343865; 18889403.467585
4831.22; 7.6279176; 18889411.232476
4832.24; 7.6341244; 18889419.003685
4833.26; 7.648924; 18889426.78996
4834.28; 7.6661322; 18889434.593752
4835.30; 7.6784193; 18889442.410051
4836.31; 7.678666; 18889450.226602
4837.33; 7.6614789; 18889458.025657
4838.35; 7.6245352; 18889465.787105
4839.37; 7.5693862; 18889473.492413
4840.38; 7.5014072; 18889481.128522
4841.40; 7.4287586; 18889488.690678
4842.42; 7.3604988; 18889496.183348
4843.44; 7.3042841; 18889503.618794
4844.46; 7.264297; 18889511.013535
4845.47; 7.2400569; 18889518.3836
4846.49; 7.2265531; 18889525.739919
4847.51; 7.2157407; 18889533.085232
4848.53; 7.1989823; 18889540.413485
4849.55; 7.1696755; 18889547.711906
4850.56; 7.1252103; 18889554.965062
4851.58; 7.0676033; 18889562.159577
4852.60; 7.0026058; 18889569.287928
4853.62; 6.9376092; 18889576.350115
4854.64; 6.8790919; 18889583.352733
4855.65; 6.830505; 18889590.305893
4856.67; 6.79132; 18889597.219163
4857.69; 6.7575325; 18889604.09804
4858.71; 6.7233797; 18889610.94215
4859.73; 6.6836026; 18889617.745769
4860.74; 6.6353971; 18889624.500317
4861.76; 6.5793412; 18889631.197803
4862.78; 6.518972; 18889637.833835
4863.80; 6.4591924; 18889644.409014
4864.82; 6.4041175; 18889650.928129
4865.83; 6.355172; 18889657.39742
4866.85; 6.3101668; 18889663.820898
4867.87; 6.2637374; 18889670.197112
4868.89; 6.2090495; 18889676.517657
4869.91; 6.1402321; 18889682.768148
4870.92; 6.0547285; 18889688.9316
4871.94; 5.9547607; 18889694.99329
4872.96; 5.847365; 18889700.945655
4873.98; 5.7429062; 18889706.791686
4875.00; 5.6524609; 18889712.545647
4876.01; 5.5848248; 18889718.230758
4877.03; 5.5440326; 18889723.874343
4878.05; 5.5281378; 18889729.501749
4879.07; 5.5296234; 18889735.130667
4880.09; 5.5373287; 18889740.767429
4881.10; 5.539333; 18889746.406231
4882.12; 5.5259679; 18889752.031428
4883.14; 5.492126; 18889757.622175
4884.16; 5.438281; 18889763.15811
4885.17; 5.370046; 18889768.624585
4886.19; 5.2965297; 18889774.016224
4887.21; 5.2280615; 18889779.338165
4888.23; 5.173959; 18889784.605032
4889.25; 5.1408832; 18889789.838229
4890.26; 5.1320486; 18889795.062433
4891.28; 5.1472419; 18889800.302103
4892.30; 5.183376; 18889805.578557
4893.32; 5.2352403; 18889810.907805
4894.34; 5.2961965; 18889816.299105
4895.35; 5.3587506; 18889821.754082
4896.37; 5.4150902; 18889827.26641
4897.39; 5.4577405; 18889832.822154
4898.41; 5.4804145; 18889838.40098
4899.43; 5.4789755; 18889843.97834
4900.44; 5.4522569; 18889849.528502
4901.46; 5.4024232; 18889855.027936
4902.48; 5.3346349; 18889860.458364
4903.50; 5.2560036; 18889865.808749
4904.52; 5.1740936; 18889871.075753
4905.53; 5.0954249; 18889876.262676
4906.55; 5.024469; 18889881.377368
4907.57; 4.9634519; 18889886.429948
4908.59; 4.912972; 18889891.431142
4909.61; 4.8730979; 18889896.391745
4910.62; 4.8444058; 18889901.323141
4911.64; 4.8284245; 18889906.238269
4912.66; 4.8272021; 18889911.152152
4913.68; 4.8420949; 18889916.081196
4914.70; 4.8722549; 18889921.040941
4915.71; 4.9134909; 18889926.042663
4916.73; 4.9581098; 18889931.089805
4917.75; 4.9960167; 18889936.175534
4918.77; 5.0168826; 18889941.282504
4919.79; 5.0127564; 18889946.385274
4920.80; 4.9802812; 18889951.454985
4921.82; 4.9217583; 18889956.465123
4922.84; 4.8446682; 18889961.396786
4923.86; 4.7597749; 18889966.242032
4924.88; 4.6784079; 18889971.004449
4925.89; 4.6097777; 18889975.697004
4926.91; 4.5591288; 18889980.338
4927.93; 4.5272103; 18889984.946505
4928.95; 4.5110737; 18889989.538583
4929.97; 4.5057666; 18889994.125259
4930.98; 4.5062475; 18889998.712425
4932.00; 4.5088565; 18890003.302246
4933.02; 4.5119327; 18890007.895199
4934.04; 4.5155298; 18890012.491814
4935.05; 4.5205192; 18890017.093507
4936.07; 4.5275423; 18890021.70235
4937.09; 4.5362558; 18890026.320062
4938.11; 4.5451203; 18890030.946799
4939.13; 4.5517321; 18890035.580266
4940.14; 4.5534852; 18890040.215517
4941.16; 4.548264; 18890044.845453
4942.18; 4.5349154; 18890049.461802
4943.20; 4.513386; 18890054.056234
4944.22; 4.4845624; 18890058.621325
4945.23; 4.4499545; 18890063.151187
4946.25; 4.4113693; 18890067.64177
4947.27; 4.3706702; 18890072.090924
4948.29; 4.3296318; 18890076.498302
4949.31; 4.2898476; 18890080.865182
4950.32; 4.2526423; 18890085.194188
4951.34; 4.2189835; 18890089.488931
4952.36; 4.1894332; 18890093.753594
4953.38; 4.1641969; 18890097.992566
4954.40; 4.1432941; 18890102.210261
4955.41; 4.1268056; 18890106.411171
4956.43; 4.1150828; 18890110.600148
4957.45; 4.1087896; 18890114.782718
4958.47; 4.108693; 18890118.96519
4959.49; 4.11523; 18890123.154317
4960.50; 4.1279955; 18890127.356438
4961.52; 4.1453663; 18890131.576242
4962.54; 4.1644634; 18890135.815486
4963.56; 4.181545; 18890140.072119
4964.58; 4.1927661; 18890144.340174
4965.59; 4.1950954; 18890148.6106
4966.61; 4.1871115; 18890152.872898
4967.63; 4.169432; 18890157.1172
4968.65; 4.1446497; 18890161.336275
4969.67; 4.1168099; 18890165.52701
4970.68; 4.0905877; 18890169.691051
4971.70; 4.0703872; 18890173.83453
4972.72; 4.0595551; 18890177.966982
4973.74; 4.0598296; 18890182.099713
4974.76; 4.0710637; 18890186.24388
4975.77; 4.091213; 18890190.408559
4976.79; 4.1165774; 18890194.599057
4977.81; 4.1423005; 18890198.81574
4978.83; 4.163136; 18890203.053633
4979.84; 4.1744386; 18890207.303031
4980.86; 4.1732465; 18890211.551216
4981.88; 4.1592158; 18890215.785118
4982.90; 4.1351124; 18890219.994484
4983.92; 4.1066088; 18890224.174835
4984.93; 4.0812894; 18890228.329411
4985.95; 4.067003; 18890232.469445
4986.97; 4.069928; 18890236.612456
4987.99; 4.0928583; 18890240.778809
4989.01; 4.1342046; 18890244.987251
4990.02; 4.1880278; 18890249.250482
4991.04; 4.2451413; 18890253.571853
4992.06; 4.2950199; 18890257.943998
4993.08; 4.3280374; 18890262.349753
4994.10; 4.3374822; 18890266.765123
4995.11; 4.3208892; 18890271.163602
4996.13; 4.2804198; 18890275.520884
4997.15; 4.222264; 18890279.818967
4998.17; 4.1552559; 18890284.048838
