#Wavenumber (cm^-1); Spectrum (K*cm*km*mol^-1); Integral (K*km*mol^-1)
0.00; 25.124221; 25.575372795281
1.02; 26.035954; 52.078850077067
2.04; 28.719914; 81.314482982021
3.05; 33.029774; 114.93736731358
4.07; 38.744908; 154.37801177048
5.09; 45.600661; 200.79751691484
6.11; 53.32214; 255.07715462673
7.13; 61.654632; 317.83890980159
8.14; 70.384333; 389.4871235452
9.16; 79.345402; 470.25731916489
10.18; 88.413013; 560.25795072409
11.20; 97.486019; 659.49451176445
12.22; 106.46585; 767.87215648112
13.23; 115.2391; 885.18058323674
14.25; 123.66963; 1011.0709329537
15.27; 131.60292; 1145.0370277823
16.29; 138.88107; 1286.4119603741
17.31; 145.36461; 1434.3868564621
18.32; 150.9559; 1588.0534515645
19.34; 155.61979; 1746.4676807299
20.36; 159.39854; 1908.7285137544
21.38; 162.41925; 2074.0643051212
22.40; 164.89164; 2241.9168751996
23.41; 167.09341; 2412.0107511868
24.43; 169.3406; 2584.3921794942
25.45; 171.94213; 2759.4218446453
26.47; 175.14254; 2937.7093901248
27.48; 179.06361; 3119.9884167577
28.50; 183.6602; 3306.9465719099
29.52; 188.70727; 3499.0424269522
30.54; 193.82976; 3696.3527571495
31.56; 198.576; 3898.494556782
32.57; 202.52148; 4104.652681543
33.59; 205.3778; 4313.7184204166
34.61; 207.07667; 4524.5135345592
35.63; 207.80312; 4736.0481459845
36.65; 207.9658; 4947.7483526437
37.66; 208.11001; 5159.595365126
38.68; 208.79617; 5372.1408546938
39.70; 210.47554; 5586.3958689209
40.72; 213.39511; 5803.6228784313
41.74; 217.55337; 6025.0828197485
42.75; 222.71394; 6251.7960037128
43.77; 228.46894; 6484.3675278945
44.79; 234.33356; 6722.9089850544
45.81; 239.84951; 6967.0654395905
46.83; 244.67663; 7216.1356892471
47.84; 248.65723; 7469.2580204232
48.86; 251.84337; 7725.623701481
49.88; 254.48243; 7984.6758370591
50.90; 256.96184; 8246.2518982219
51.92; 259.71979; 8510.6354330083
52.93; 263.13718; 8778.4977292335
53.95; 267.43354; 9050.7335284365
54.97; 272.59428; 9328.2227429342
55.99; 278.35396; 9611.575058641
57.01; 284.24762; 9900.9268736011
58.02; 289.72323; 10195.852616928
59.04; 294.28639; 10495.423462036
60.06; 297.63438; 10798.402416257
61.08; 299.73488; 11103.51959456
62.10; 300.82033; 11409.741714538
63.11; 301.29618; 11716.448222983
64.13; 301.59229; 12023.456161227
65.15; 302.00888; 12330.88817156
66.17; 302.61262; 12638.934756422
67.19; 303.2223; 12947.601976957
68.20; 303.49179; 13256.543518951
69.22; 303.062; 13565.047559894
70.24; 301.72829; 13872.193937789
71.26; 299.56254; 14177.1356763
72.27; 296.94548; 14479.413358598
73.29; 294.49583; 14779.197405637
74.31; 292.91872; 15077.376022941
75.33; 292.82195; 15375.456131913
76.35; 294.55708; 15675.302530312
77.36; 298.13068; 15978.786702007
78.38; 303.20564; 16287.436964354
79.40; 309.18359; 16602.172512576
80.42; 315.33766; 16923.172642657
81.44; 320.95683; 17249.89284074
82.45; 325.46845; 17581.205678777
83.47; 328.52062; 17915.625497622
84.49; 330.0212; 18251.572833868
85.51; 330.1408; 18587.641921739
86.53; 329.28915; 18922.844062051
87.54; 328.06956; 19256.804717054
88.56; 327.21098; 19589.891378285
89.58; 327.47466; 19923.246449666
90.60; 329.53755; 20258.701451109
91.62; 333.86508; 20598.561693778
92.63; 340.59781; 20945.275564435
93.65; 349.48362; 21301.034804376
94.67; 359.8844; 21667.381588985
95.69; 370.87163; 22044.912907927
96.71; 381.40187; 22433.163552278
97.72; 390.53718; 22830.713551654
98.74; 397.65639; 23235.51060034
99.76; 402.59726; 23645.337242399
100.78; 405.68289; 24058.304919302
101.80; 407.61506; 24473.239461576
102.81; 409.25631; 24889.844728338
103.83; 411.35906; 25308.590501035
104.85; 414.32189; 25730.352310842
105.87; 418.05101; 26155.910198141
106.89; 421.9764; 26585.463961446
107.90; 425.22504; 27018.324705007
108.92; 426.90114; 27452.891643879
109.94; 426.38439; 27886.932550505
110.96; 423.54647; 28318.084578463
111.98; 418.80934; 28744.414419077
112.99; 413.02075; 29164.851723059
114.01; 407.18553; 29579.349024942
115.03; 402.14344; 29988.713691095
116.05; 398.30521; 30394.171212113
117.07; 395.53988; 30796.813743509
118.08; 393.25294; 31197.128266028
119.10; 390.6269; 31594.769598395
120.12; 386.93737; 31988.655147535
121.14; 381.83181; 32377.34345648
122.15; 375.47412; 32759.559904537
123.17; 368.5091; 33134.686261789
124.19; 361.86732; 33503.051582451
125.21; 356.48646; 33865.939414348
126.23; 353.04962; 34225.328692169
127.24; 351.82704; 34583.47344136
128.26; 352.66215; 34942.468295859
129.28; 355.08719; 35303.931729673
130.30; 358.50941; 35668.878843091
131.32; 362.39264; 36037.778912589
132.33; 366.37356; 36410.731390014
133.35; 370.28861; 36787.669216345
134.37; 374.12645; 37168.513799246
135.39; 377.94744; 37553.247980433
136.41; 381.81452; 37941.918681934
137.42; 385.76288; 38334.608648637
138.44; 389.80871; 38731.417093294
139.46; 393.97514; 39132.466785913
140.48; 398.30627; 39537.925381544
141.50; 402.8495; 39948.008792443
142.51; 407.60684; 40362.934968835
143.53; 412.47554; 40782.817264881
144.55; 417.20834; 41207.517349199
145.57; 421.41908; 41636.503786642
146.59; 424.64313; 42068.772173451
147.60; 426.44228; 42502.872011491
148.62; 426.52774; 42937.058841825
149.64; 424.86919; 43369.557345518
150.66; 421.76152; 43798.892372756
151.68; 417.83151; 44224.22682014
152.69; 413.97924; 44645.639817705
153.71; 411.25972; 45064.284462264
154.73; 410.7197; 45482.379392225
155.75; 413.21253; 45903.011914487
156.77; 419.22187; 46329.761692583
157.78; 428.73052; 46766.190861142
158.80; 441.1696; 47215.282479645
159.82; 455.47275; 47678.934079874
160.84; 470.23734; 48157.615405368
161.86; 483.96648; 48650.272400486
162.87; 495.33835; 49154.505468701
163.89; 503.43661; 49666.982209471
164.91; 507.88184; 50183.984006928
165.93; 508.83182; 50701.952841712
166.94; 506.85759; 51217.912001044
167.96; 502.74069; 51729.68032821
168.98; 497.2589; 52235.868427114
170.00; 491.02692; 52735.712643041
171.02; 484.43407; 53228.845619913
172.03; 477.68441; 53715.107731519
173.05; 470.90934; 54194.473117043
174.07; 464.30112; 54667.111617597
175.09; 458.21416; 55133.553864257
176.11; 453.19717; 55594.889028366
177.12; 449.94409; 56052.912697232
178.14; 449.17677; 56510.15526527
179.16; 451.4887; 56969.751278234
180.18; 457.18659; 57435.147499102
181.20; 466.16607; 57909.684439812
182.21; 477.85318; 58396.118358461
183.23; 491.23579; 58896.175197493
184.25; 504.99666; 59410.24000823
185.27; 517.74093; 59937.277931737
186.29; 528.28453; 60475.048788413
187.30; 535.94278; 61020.615409169
188.32; 540.74016; 61571.065560117
189.34; 543.46582; 62124.290308556
190.36; 545.53016; 62679.616465727
191.38; 548.63372; 63238.101914498
192.39; 554.32288; 63802.378682063
193.41; 563.5559; 64376.054267821
194.43; 576.41463; 64962.819492403
195.45; 592.06201; 65565.513068584
196.47; 608.97076; 66185.419020123
197.48; 625.35925; 66822.00774885
198.50; 639.69843; 67473.193150653
199.52; 651.12812; 68136.013483758
200.54; 659.65226; 68807.511020661
201.56; 666.06068; 69485.532054813
202.57; 671.61957; 70169.211792313
203.59; 677.64823; 70859.028452279
204.61; 685.12832; 71556.459516945
205.63; 694.46426; 72263.394162605
206.65; 705.44615; 72981.507902892
207.66; 717.38781; 73711.777739034
208.68; 729.35645; 74454.231133712
209.70; 740.39695; 75207.923281083
210.72; 749.68268; 75971.067897267
211.74; 756.57744; 76741.231087754
212.75; 760.64112; 77515.53092832
213.77; 761.63107; 78290.83849491
214.79; 759.53558; 79064.01294348
215.81; 754.63582; 79832.199645219
216.82; 747.55371; 80593.177064724
217.84; 739.22925; 81345.680537711
218.86; 730.79297; 82089.596241784
219.88; 723.34935; 82825.934662159
220.90; 717.73965; 83556.562653398
221.91; 714.37936; 84283.770015144
222.93; 713.24701; 85009.824692763
223.95; 714.04078; 85736.687398958
224.97; 716.44142; 86465.993850743
225.99; 720.36097; 87199.290230873
227.00; 726.04837; 87938.376142589
228.02; 733.97516; 88685.531178144
229.04; 744.52013; 89443.42053821
230.06; 757.5717; 90214.595841052
231.08; 772.22446; 91000.687022212
232.09; 786.7321; 91801.546353008
233.11; 798.79121; 92614.681331135
234.13; 806.10034; 93435.256696085
235.15; 807.01913; 94256.767345892
236.17; 801.09357; 95072.246027194
237.18; 789.24538; 95875.663770712
238.20; 773.53658; 96663.09062456
239.22; 756.57362; 97433.249919105
240.24; 740.7494; 98187.300847576
241.26; 727.58146; 98927.947374331
242.27; 717.36842; 99658.197471078
243.29; 709.26761; 100380.20128985
244.31; 701.74171; 101094.544066
245.33; 693.19312; 101800.18474812
246.35; 682.54859; 102494.98975852
247.36; 669.59284; 103176.60637164
248.38; 654.95873; 103843.32609493
249.40; 639.81663; 104494.63181814
250.42; 625.41277; 105131.27503111
251.44; 612.64658; 105754.92281223
252.45; 601.84046; 106367.57042595
253.47; 592.76345; 106970.97804306
254.49; 584.86497; 107566.3453396
255.51; 577.59798; 108154.31515564
256.53; 570.69083; 108735.25379505
257.54; 564.26301; 109309.64918995
258.56; 558.75283; 109878.43546192
259.58; 554.70029; 110443.09642568
260.60; 552.47741; 111005.49458888
261.61; 552.06698; 111567.47495631
262.63; 552.9629; 112130.36732594
263.65; 554.21799; 112694.53731979
264.67; 554.62023; 113259.11678005
265.69; 552.94883; 113821.99482492
266.70; 548.25219; 114380.09190128
267.72; 540.09453; 114929.88482745
268.74; 528.72703; 115468.10613033
269.76; 515.1486; 115992.50517647
270.78; 501.02975; 116502.53184121
271.79; 488.4883; 116999.79185509
272.81; 479.73168; 117488.13800691
273.83; 476.61696; 117973.31351024
274.85; 480.2168; 118462.15349488
275.87; 490.50076; 118961.46210235
276.88; 506.23297; 119476.78541802
277.90; 525.1429; 120011.35822865
278.92; 544.35468; 120565.48780246
279.94; 560.98341; 121136.54470373
280.96; 572.75097; 121719.58047971
281.97; 578.46052; 122308.42832913
282.99; 578.20539; 122897.01647059
284.01; 573.26439; 123480.57488549
285.03; 565.72532; 124056.45884717
286.05; 557.95303; 124624.43095144
287.06; 552.05279; 125186.3968711
288.08; 549.46595; 125745.72950033
289.10; 550.78123; 126306.4010286
290.12; 555.77324; 126872.15420466
291.14; 563.61494; 127445.88989552
292.15; 573.173; 128029.35527775
293.17; 583.2912; 128623.12054782
294.19; 592.99247; 129226.76129144
295.21; 601.56999; 129839.13358072
296.23; 608.57646; 130458.63815108
297.24; 613.74643; 131083.4055373
298.26; 616.89558; 131711.37861792
299.28; 617.83532; 132340.3083171
300.30; 616.32871; 132967.70435138
301.32; 612.0983; 133590.79400805
302.33; 604.88357; 134206.53937675
303.35; 594.53385; 134811.74918253
304.37; 581.113; 135403.29714156
305.39; 564.98492; 135978.42740501
306.41; 546.8479; 136535.09496487
307.42; 527.69343; 137072.26410937
308.44; 508.68316; 137590.08161748
309.46; 490.96283; 138089.86058858
310.48; 475.45658; 138573.85486784
311.49; 462.6986; 139044.86207498
312.51; 452.75442; 139505.74654036
313.53; 445.25992; 139959.00192996
314.55; 439.56875; 140406.46394717
315.57; 434.96215; 140849.23664447
316.58; 430.85329; 141287.82669765
317.60; 426.92045; 141722.41329078
318.62; 423.13046; 142153.14184244
319.64; 419.65473; 142580.33225175
320.66; 416.7195; 143004.53471577
321.67; 414.45362; 143426.43062002
322.69; 412.79315; 143846.63622912
323.71; 411.47425; 144265.49926386
324.73; 410.10834; 144682.97186059
325.75; 408.29999; 145098.60363396
326.76; 405.75534; 145511.64505712
327.78; 402.33841; 145921.20819706
328.80; 398.06076; 146326.41687825
329.82; 393.02139; 146726.49569857
330.84; 387.33522; 147120.78624245
331.85; 381.09001; 147508.71942316
332.87; 374.35402; 147889.79565647
333.89; 367.22943; 148263.61936699
334.91; 359.92208; 148630.00450862
335.93; 352.7885; 148989.12797927
336.94; 346.32974; 149341.67670703
337.96; 341.12366; 149688.92586847
338.98; 337.71354; 150032.70368213
340.00; 336.48867; 150375.23462391
341.02; 337.59597; 150718.89274881
342.03; 340.9105; 151065.92492339
343.05; 346.07177; 151418.2110561
344.07; 352.57241; 151777.11455824
345.09; 359.87174; 152143.44845642
346.11; 367.50366; 152517.55132655
347.12; 375.15397; 152899.44188031
348.14; 382.6932; 153289.0070391
349.16; 390.16378; 153686.17693363
350.18; 397.73108; 154091.05000988
351.20; 405.61611; 154503.94970596
352.21; 414.03329; 154925.41772492
353.23; 423.15687; 155356.17315467
354.25; 433.13405; 155797.08493113
355.27; 444.14904; 156249.20948434
356.28; 456.52235; 156713.92953518
357.30; 470.8095; 157193.19328744
358.32; 487.85026; 157689.80379719
359.34; 508.72372; 158207.66259484
360.36; 534.58763; 158751.8497301
361.37; 566.41896; 159328.43979012
362.39; 604.71441; 159944.01296441
363.41; 649.23689; 160604.90810189
364.43; 698.89513; 161316.35318204
365.45; 751.81193; 162081.66528581
366.46; 805.58148; 162901.71246509
367.48; 857.65466; 163774.76789469
368.50; 905.74673; 164696.77897673
369.52; 948.15038; 165661.95514589
370.54; 983.86605; 166663.48832861
371.55; 1012.5208; 167694.19083706
372.57; 1034.1177; 168746.87798312
373.59; 1048.7138; 169814.42338406
374.61; 1056.152; 170889.54050332
375.63; 1055.9508; 171964.45282084
376.64; 1047.4101; 173030.67106261
377.66; 1029.9148; 174079.07984874
378.68; 1003.3539; 175100.45085353
379.70; 968.52614; 176086.36867076
380.72; 927.39428; 177030.41602939
381.73; 883.08346; 177929.35688433
382.75; 839.57869; 178784.01176305
383.77; 801.15806; 179599.55609741
384.79; 771.67197; 180385.08486437
385.81; 753.8295; 181152.45077082
386.82; 748.66367; 181914.5580815
387.84; 755.31286; 182683.43398429
388.86; 771.18283; 183468.46482533
389.88; 792.45994; 184275.15485163
390.90; 814.85822; 185104.64535538
391.91; 834.42417; 185954.05315379
392.93; 848.21298; 186817.49736576
393.95; 854.68875; 187687.53363321
394.97; 853.77894; 188556.64375166
395.99; 846.60443; 189418.45052769
397.00; 834.98562; 190268.4298624
398.02; 820.87064; 191104.04074958
399.04; 805.83531; 191924.34631835
400.06; 790.77078; 192729.31685219
401.07; 775.81636; 193519.06443083
402.09; 760.53018; 194293.25133823
403.11; 744.23327; 195050.8486905
404.13; 726.42327; 195790.31622798
405.15; 707.13883; 196510.15304142
406.16; 687.16665; 197209.65904014
407.18; 668.02053; 197889.67511521
408.20; 651.68143; 198553.05868723
409.22; 640.15775; 199204.71165161
410.24; 634.98737; 199851.10139235
411.25; 636.83426; 200499.37118348
412.27; 645.31536; 201156.27437742
413.29; 659.12455; 201827.23472467
414.31; 676.41788; 202515.79893764
415.33; 695.32566; 203223.61045958
416.34; 714.40265; 203950.84153118
417.36; 732.84848; 204696.8496649
418.38; 750.42452; 205460.74944695
419.40; 767.12601; 206241.65061822
420.42; 782.78273; 207038.48965998
421.43; 796.80175; 207849.59945871
422.45; 808.20631; 208672.31860907
423.47; 815.98605; 209502.9572009
424.49; 819.6151; 210337.29000735
425.51; 819.49321; 211171.49872742
426.52; 817.07551; 212003.24634178
427.54; 814.58382; 212832.45752304
428.56; 814.38317; 213661.46444572
429.58; 818.27354; 214494.43160277
430.60; 827.00334; 215336.28531849
431.61; 840.22277; 216191.59584125
432.63; 856.89595; 217063.87893775
433.65; 875.97161; 217955.58024135
434.67; 896.98247; 218868.66968865
435.69; 920.27238; 219805.46726046
436.70; 946.73323; 220769.20083082
437.72; 977.18385; 221763.93181949
438.74; 1011.7173; 222793.816368
439.76; 1049.3748; 223862.03467207
440.78; 1088.3492; 224969.92714337
441.79; 1126.6449; 226116.80302139
442.81; 1162.8711; 227300.5556543
443.83; 1196.746; 228518.79140521
444.85; 1229.025; 229769.88581478
445.87; 1260.8737; 231053.40086557
446.88; 1293.0379; 232369.65760016
447.90; 1325.3438; 233718.80035769
448.92; 1356.9643; 235100.13144677
449.94; 1387.523; 236512.56995231
450.95; 1418.6412; 237956.68550963
451.97; 1455.1899; 239438.00602756
452.99; 1505.4917; 240970.53162384
454.01; 1580.0957; 242579.0008672
455.03; 1689.3755; 244298.71218646
456.04; 1840.8131; 246172.58044821
457.06; 2037.1104; 248246.27093544
458.08; 2276.0359; 250563.17731219
459.10; 2552.2126; 253161.21964153
460.12; 2860.1625; 256072.74160743
461.13; 3197.2511; 259327.40521438
462.15; 3565.0726; 262956.49525031
463.17; 3968.3986; 266996.1537376
464.19; 4411.8879; 271487.26519208
465.21; 4895.8653; 276471.04479651
466.22; 5413.1036; 281981.35070682
467.24; 5948.3333; 288036.49734399
468.26; 6481.1587; 294634.03722506
469.28; 6991.5643; 301751.14801644
470.30; 7465.8875; 309351.09937348
471.31; 7900.6286; 317393.59840964
472.33; 8302.0844; 325844.762066
473.35; 8681.369; 334682.02112545
474.37; 9046.3361; 343890.80086573
475.39; 9393.4254; 353452.90255073
476.40; 9702.8539; 363329.9891733
477.42; 9939.5891; 373448.06192054
478.44; 10060.504; 383689.22059126
479.46; 10025.783; 393895.03524102
480.48; 9810.9519; 403882.16091478
481.49; 9415.5176; 413466.75150945
482.51; 8865.3477; 422491.29289893
483.53; 8208.0735; 430846.75753652
484.55; 7503.1951; 438484.68633661
485.57; 6810.2148; 445417.19109963
486.58; 6178.4529; 451706.58950939
487.60; 5641.1556; 457449.04250433
488.62; 5214.6206; 462757.30125189
489.64; 4901.1733; 467746.48415259
490.66; 4693.7154; 472524.48384062
491.67; 4579.611; 477186.33019216
492.69; 4542.7188; 481810.62187964
493.71; 4563.8103; 486456.38380393
494.73; 4620.6934; 491160.05032286
495.74; 4689.5571; 495933.81705887
496.76; 4748.3005; 500767.38206499
497.78; 4781.3261; 505634.56570458
498.80; 4784.1328; 510504.60644477
499.82; 4765.6649; 515355.84764349
500.83; 4746.9856; 520188.07418957
501.85; 4756.2099; 525029.69066978
502.87; 4821.1257; 529937.38861996
503.89; 4961.8736; 534988.36187938
504.91; 5186.0069; 540267.49309119
505.92; 5487.2596; 545853.28656923
506.94; 5847.8917; 551806.18793577
507.96; 6243.2338; 558161.53049654
508.98; 6646.5817; 564927.4638683
510.00; 7033.0287; 572086.78360056
511.01; 7381.857; 579601.19547168
512.03; 7678.1174; 587417.18769896
513.05; 7914.4125; 595473.71813623
514.07; 8093.4188; 603712.46926298
515.09; 8230.5839; 612090.84848862
516.10; 8355.3433; 620596.2274556
517.12; 8508.8373; 629257.85666368
518.14; 8736.8718; 638151.61514395
519.16; 9078.6364; 647393.27519941
520.18; 9553.7755; 657118.60636313
521.19; 10151.875; 667452.77706063
522.21; 10828.482; 678475.70438036
523.23; 11510.18; 690192.57043183
524.25; 12108.447; 702518.44726198
525.27; 12539.038; 715282.64726839
526.28; 12741.559; 728253.00449759
527.30; 12693.644; 741174.58679971
528.32; 12415.744; 753813.27882915
529.34; 11965.462; 765993.60278849
530.36; 11423.573; 777622.30742785
531.37; 10876.158; 788693.76745235
532.39; 10397.984; 799278.46664331
533.41; 10041.298; 809500.07449467
534.43; 9832.0652; 819508.69263432
535.45; 9773.2631; 829457.4527858
536.46; 9852.9654; 839487.34642851
537.48; 10054.115; 849722.00215291
538.50; 10363.073; 860271.16361613
539.52; 10774.925; 871239.57271088
540.54; 11294.674; 882737.06344461
541.55; 11934.419; 894885.78700481
542.57; 12707.372; 907821.34371422
543.59; 13620.055; 921685.97238425
544.61; 14664.42; 936613.71886971
545.62; 15811.893; 952709.54376205
546.64; 17011.332; 970026.3453028
547.66; 18192.333; 988545.35549508
548.68; 19274.232; 1008165.6915961
549.70; 20179.495; 1028707.5464267
550.71; 20848.65; 1049930.5728203
551.73; 21252.867; 1071565.0743789
552.75; 21400.433; 1093349.7920081
553.77; 21334.769; 1115067.6667185
554.79; 21123.934; 1136570.9197842
555.80; 20844.111; 1157789.3254237
556.82; 20561.426; 1178719.9701132
557.84; 20316.931; 1199401.7295433
558.86; 20118.601; 1219881.5968639
559.88; 19942.004; 1240181.6966619
560.89; 19738.802; 1260274.9450723
561.91; 19450.165; 1280074.3737708
562.93; 19021.313; 1299437.249754
563.95; 18413.662; 1318181.5634732
564.97; 17612.338; 1336110.1639999
565.98; 16628.365; 1353037.1223062
567.00; 15496.153; 1368811.5376621
568.02; 14267.623; 1383335.3619534
569.04; 13004.42; 1396573.3000519
570.06; 11769.467; 1408554.1092172
571.07; 10618.854; 1419363.6439336
572.09; 9594.9937; 1429130.9334779
573.11; 8721.9988; 1438009.5518542
574.13; 8004.1611; 1446157.4424409
575.15; 7428.0426; 1453718.8692947
576.16; 6967.9118; 1460811.9028024
577.18; 6593.3201; 1467523.6181513
578.20; 6276.8466; 1473913.1771005
579.22; 5999.837; 1480020.7522476
580.24; 5754.5256; 1485878.6109706
581.25; 5542.1237; 1491520.2537851
582.27; 5367.8828; 1496984.5268908
583.29; 5235.2356; 1502313.7708422
584.31; 5141.4438; 1507547.5388111
585.33; 5076.5777; 1512715.2758619
586.34; 5026.3397; 1517831.8727847
587.36; 4977.725; 1522898.9820386
588.38; 4925.3626; 1527912.7886475
589.40; 4876.0351; 1532876.382003
590.41; 4849.4469; 1537812.9096998
591.43; 4874.5729; 1542775.0145606
592.45; 4982.408; 1547846.8908659
593.47; 5197.136; 1553137.3510519
594.49; 5528.2676; 1558764.8888735
595.50; 5966.0269; 1564838.0468256
596.52; 6481.3365; 1571435.7676863
597.54; 7030.4668; 1578592.4795065
598.56; 7563.1752; 1586291.4655095
599.58; 8032.2753; 1594467.9751821
600.59; 8402.2618; 1603021.1150752
601.61; 8654.9103; 1611831.4402414
602.63; 8790.5838; 1620779.8752515
603.65; 8825.0963; 1629763.4425163
604.67; 8783.1399; 1638704.2999149
605.68; 8690.1781; 1647550.5261774
606.70; 8565.0981; 1656269.4264605
607.72; 8415.6678; 1664836.2131229
608.74; 8237.9967; 1673222.1382568
609.76; 8019.9821; 1681386.1339589
610.77; 7747.4887; 1689272.7430961
611.79; 7411.1666; 1696816.9908637
612.81; 7011.6489; 1703954.5469256
613.83; 6561.4539; 1710633.8238481
614.85; 6083.0625; 1716826.1189525
615.86; 5603.9476; 1722530.695809
616.88; 5150.3278; 1727773.5072436
617.90; 4741.7577; 1732600.411978
618.92; 4388.2413; 1737067.4522509
619.94; 4090.5427; 1741231.4482002
620.95; 3843.1825; 1745143.6421525
621.97; 3638.6898; 1748847.6713686
622.99; 3471.3694; 1752381.3756503
624.01; 3339.2135; 1755780.5508674
625.03; 3243.4472; 1759082.2401091
626.04; 3186.1789; 1762325.6326942
627.06; 3167.3338; 1765549.8418075
628.08; 3182.2357; 1768789.2204763
629.10; 3220.8375; 1772067.8940341
630.12; 3268.8813; 1775395.4741228
631.13; 3310.5148; 1778765.4353205
632.15; 3331.389; 1782156.6456035
633.17; 3321.1937; 1785537.4774996
634.19; 3274.9115; 1788871.1960381
635.21; 3192.6232; 1792121.1487191
636.22; 3078.2261; 1795254.6500386
637.24; 2937.7289; 1798245.1312746
638.26; 2777.7903; 1801072.8019412
639.28; 2604.9033; 1803724.4810657
640.29; 2425.2609; 1806193.2920093
641.31; 2245.0278; 1808478.6334313
642.33; 2070.607; 1810586.4220567
643.35; 1908.5661; 1812529.2600051
644.37; 1765.1036; 1814326.059316
645.38; 1645.1925; 1816000.7942627
646.40; 1551.7127; 1817580.3708072
647.42; 1484.922; 1819091.9573437
648.44; 1442.5041; 1820560.3643081
649.46; 1420.2318; 1822006.0990441
650.47; 1413.0728; 1823444.5462104
651.49; 1416.4202; 1824886.4008879
652.51; 1427.099; 1826339.1260541
653.53; 1443.8831; 1827808.9367744
654.55; 1467.4264; 1829302.7135725
655.56; 1499.6978; 1830829.3412652
656.58; 1543.1669; 1832400.2185563
657.60; 1600.0511; 1834029.0015091
658.62; 1671.9006; 1835730.9241577
659.64; 1759.6656; 1837522.1877891
660.65; 1864.2103; 1839419.8734343
661.67; 1987.0593; 1841442.6140829
662.69; 2131.0457; 1843611.926652
663.71; 2300.5165; 1845953.753217
664.73; 2500.8528; 1848499.5134625
665.74; 2737.2548; 1851285.9207189
666.76; 3012.9811; 1854353.0054573
667.78; 3327.4416; 1857740.1974269
668.80; 3674.6661; 1861480.8489751
669.82; 4042.6575; 1865596.0998818
670.83; 4413.9782; 1870089.3392668
671.85; 4767.6413; 1874942.5923749
672.87; 5082.0433; 1880115.8931523
673.89; 5338.3742; 1885550.1276765
674.91; 5523.7499; 1891173.066763
675.92; 5633.3093; 1896907.5325172
676.94; 5670.7097; 1902680.0702967
677.96; 5646.8293; 1908428.2988829
678.98; 5576.932; 1914105.375023
680.00; 5476.9738; 1919680.6979817
681.01; 5359.9861; 1925136.9325355
682.03; 5233.4817; 1930464.3910418
683.05; 5098.566; 1935654.5112672
684.07; 4950.9687; 1940694.3837273
685.08; 4783.6592; 1945563.942391
686.10; 4590.257; 1950236.6259142
687.12; 4368.2153; 1954683.280631
688.14; 4120.8463; 1958878.12437
689.16; 3857.6148; 1962805.0097832
690.17; 3592.663; 1966462.185728
691.19; 3342.0512; 1969864.2495843
692.21; 3120.5527; 1973040.837588
693.23; 2938.9226; 1976032.5340184
694.25; 2802.3493; 1978885.2046568
695.26; 2710.3986; 1981644.2734436
696.28; 2658.2999; 1984350.308015
697.30; 2639.0577; 1987036.7548634
698.32; 2645.7037; 1989729.9671103
699.34; 2673.0566; 1992451.0233443
700.35; 2718.5821; 1995218.4225819
701.37; 2782.2571; 1998050.6402211
702.39; 2865.6234; 2000967.7212173
703.41; 2970.4106; 2003991.4710304
704.43; 3097.165; 2007144.2513136
705.44; 3244.267; 2010446.7750953
706.46; 3407.577; 2013915.5414507
707.48; 3580.7726; 2017560.6134517
708.50; 3756.263; 2021384.3271032
709.52; 3926.4239; 2025381.2571704
710.53; 4084.8115; 2029539.4189841
711.55; 4227.0129; 2033842.3357426
712.57; 4350.8786; 2038271.3423604
713.59; 4456.0561; 2042807.4152123
714.61; 4542.9686; 2047431.9612216
715.62; 4611.5838; 2052126.3545461
716.64; 4660.442; 2056870.4833926
717.66; 4686.3753; 2061641.011229
718.68; 4685.1558; 2066410.2976882
719.70; 4652.9913; 2071146.8420935
720.71; 4588.4492; 2075817.6853564
721.73; 4494.1525; 2080392.5386959
722.75; 4377.5636; 2084848.7095846
723.77; 4250.382; 2089175.4150661
724.79; 4126.4954; 2093376.0093058
725.80; 4018.9011; 2097467.0771702
726.82; 3936.4023; 2101474.1648528
727.84; 3881.0384; 2105424.8945143
728.86; 3847.061; 2109341.0366044
729.88; 3821.8547; 2113231.5197203
730.89; 3788.6487; 2117088.200639
731.91; 3730.3462; 2120885.5320486
732.93; 3633.477; 2124584.2548652
733.95; 3491.2599; 2128138.206833
734.96; 3305.0247; 2131502.5793651
735.98; 3083.7209; 2134641.6741654
737.00; 2841.7563; 2137534.4594374
738.02; 2595.8209; 2140176.8931129
739.04; 2361.5476; 2142580.846709
740.05; 2150.8055; 2144770.2739364
741.07; 1970.1635; 2146775.8153593
742.09; 1820.6989; 2148629.2083238
743.11; 1698.9751; 2150358.6916661
744.13; 1598.7634; 2151986.1637733
745.14; 1512.9915; 2153526.3238044
746.16; 1435.4473; 2154987.54718
747.18; 1361.9177; 2156373.9206388
748.20; 1290.6339; 2157687.7302586
749.22; 1222.0681; 2158931.7428342
750.23; 1158.2544; 2160110.7958297
751.25; 1101.8681; 2161232.4500216
752.27; 1055.3032; 2162306.7031649
753.29; 1019.9493; 2163344.9675774
754.31; 995.8006; 2164358.6496196
755.32; 981.44535; 2165357.7186353
756.34; 974.39876; 2166349.614524
757.36; 971.66672; 2167338.7293179
758.38; 970.38325; 2168326.5375907
759.40; 968.35846; 2169312.2847121
760.41; 964.41307; 2170294.0155982
761.43; 958.44736; 2171269.6736528
762.45; 951.27454; 2172238.0300859
763.47; 944.31147; 2173199.2984159
764.49; 939.24132; 2174155.4055499
765.50; 937.73743; 2175109.9817923
766.52; 941.28163; 2176068.1658739
767.54; 951.05357; 2177036.2973683
768.56; 967.84272; 2178021.5194894
769.58; 991.95611; 2179031.2880054
770.59; 1023.1532; 2180072.8137962
771.61; 1060.6981; 2181152.5587348
772.63; 1103.637; 2182276.0136013
773.65; 1151.3502; 2183448.0384023
774.67; 1204.3052; 2184673.9691615
775.68; 1264.784; 2185961.4646756
776.70; 1337.2502; 2187322.7276435
777.72; 1428.0323; 2188776.4029508
778.74; 1544.1508; 2190348.2818693
779.75; 1691.3949; 2192070.0488716
780.77; 1872.0704; 2193975.7357959
781.79; 2083.0726; 2196096.2138063
782.81; 2314.9813; 2198452.7648994
783.83; 2552.6842; 2201051.2872969
784.84; 2777.6279; 2203878.7926289
785.86; 2971.306; 2206903.4539278
786.88; 3119.1679; 2210078.6322967
787.90; 3213.9255; 2213350.2697469
788.92; 3257.3335; 2216666.0947391
789.93; 3259.9057; 2219984.5380969
790.95; 3238.5851; 2223281.2779792
791.97; 3212.9532; 2226551.925694
792.99; 3200.9509; 2229810.3555427
794.01; 3215.1904; 2233083.2806524
795.02; 3260.7372; 2236402.5704534
796.04; 3334.805; 2239797.2580164
797.06; 3428.2845; 2243287.1037069
798.08; 3528.5655; 2246879.0310733
799.10; 3622.8348; 2250566.9205518
800.11; 3701.0016; 2254334.3804329
801.13; 3757.5816; 2258159.4363157
802.15; 3792.2036; 2262019.7359883
803.17; 3808.7697; 2265896.8992254
804.19; 3813.6185; 2269778.9983231
805.20; 3813.2438; 2273660.7159517
806.22; 3812.1738; 2277541.3443884
807.24; 3811.5351; 2281421.3226183
808.26; 3808.6306; 2285298.3442018
809.28; 3797.6072; 2289164.1444677
810.29; 3771.0202; 2293002.8802718
811.31; 3721.8824; 2296791.5959874
812.33; 3645.6633; 2300502.7239556
813.35; 3541.7083; 2304108.0301793
814.37; 3413.6979; 2307583.0272955
815.38; 3269.0187; 2310910.7472634
816.40; 3117.2177; 2314083.9403746
817.42; 2967.9674; 2317105.2031028
818.44; 2829.1065; 2319985.1114096
819.46; 2705.2871; 2322738.9769793
820.47; 2597.5651; 2325383.1861252
821.49; 2503.972; 2327932.1216175
822.51; 2420.8109; 2330396.4026719
823.53; 2344.2089; 2332782.706206
824.55; 2271.4252; 2335094.9190649
825.56; 2201.5376; 2337335.9893887
826.58; 2135.3792; 2339509.7132329
827.60; 2074.8599; 2341621.8310682
828.62; 2021.9999; 2343680.1397484
829.63; 1978.0483; 2345693.7075483
830.65; 1942.9706; 2347671.5677682
831.67; 1915.4064; 2349621.3688766
832.69; 1893.0093; 2351548.3706314
833.71; 1872.9664; 2353454.9695854
834.72; 1852.4913; 2355340.7258046
835.74; 1829.1691; 2357202.740988
836.76; 1801.1577; 2359036.241757
837.78; 1767.336; 2360835.3135909
838.80; 1727.4918; 2362593.8256884
839.81; 1682.5613; 2364306.6005111
840.83; 1634.822; 2365970.7787219
841.85; 1587.8569; 2367587.1484857
842.87; 1546.1324; 2369161.0445011
843.89; 1514.152; 2370702.385924
844.90; 1495.3401; 2372224.5775775
845.92; 1490.9735; 2373742.3242224
846.94; 1499.5437; 2375268.7950026
847.96; 1516.8376; 2376812.8702228
848.98; 1536.8051; 2378377.2714698
849.99; 1553.0087; 2379958.1672837
851.01; 1560.2353; 2381546.4194851
852.03; 1555.7835; 2383130.1399886
853.05; 1540.05; 2384697.8444228
854.07; 1516.2798; 2386241.3518755
855.08; 1489.6232; 2387757.7240075
856.10; 1465.8396; 2389249.8854693
857.12; 1450.0492; 2390725.9729545
858.14; 1445.8353; 2392197.7709416
859.16; 1454.824; 2393678.7190278
860.17; 1476.6876; 2395181.9233271
861.19; 1509.4272; 2396718.4550766
862.21; 1549.7958; 2398296.0803079
863.23; 1593.8052; 2399918.5052579
864.25; 1637.3328; 2401585.2394359
865.26; 1676.8516; 2403292.2020545
866.28; 1710.2273; 2405033.1396116
867.30; 1737.4003; 2406801.7381332
868.32; 1760.6884; 2408594.0429199
869.34; 1784.4741; 2410410.5605642
870.35; 1814.2183; 2412257.3565005
871.37; 1855.0011; 2414145.6675536
872.39; 1910.0335; 2416089.999226
873.41; 1979.6746; 2418105.2225491
874.42; 2061.3646; 2420203.6027318
875.44; 2150.5621; 2422392.7821691
876.46; 2242.3766; 2424675.4247786
877.48; 2333.2769; 2427050.5999521
878.50; 2422.1887; 2429516.2835756
879.51; 2510.5115; 2432071.8759176
880.53; 2601.0235; 2434719.6056188
881.55; 2696.1349; 2437464.1545889
882.57; 2796.2736; 2440310.6404807
883.59; 2899.2149; 2443261.9161711
884.60; 3000.8379; 2446316.639643
885.62; 3097.2335; 2449469.4897317
886.64; 3187.4934; 2452714.2204199
887.66; 3276.1123; 2456049.1613287
888.68; 3373.9138; 2459483.6599818
889.69; 3496.7916; 2463043.2429264
890.71; 3662.2621; 2466771.2677036
891.73; 3884.6259; 2470725.6492071
892.75; 4170.1767; 2474970.7091584
893.77; 4514.1481; 2479565.9171374
894.78; 4900.8113; 2484554.7315572
895.80; 5307.3519; 2489957.3868121
896.82; 5711.0183; 2495770.9569718
897.84; 6097.8535; 2501978.3086908
898.86; 6470.4621; 2508564.9598949
899.87; 6852.0518; 2515540.0529964
900.89; 7284.6391; 2522955.5012098
901.91; 7820.7696; 2530916.7071597
902.93; 8510.0757; 2539579.5969551
903.95; 9383.907; 2549132.0093504
904.96; 10442.489; 2559762.0123341
905.98; 11649.028; 2571620.2199328
907.00; 12933.698; 2584786.1661067
908.02; 14207.75; 2599249.0429821
909.04; 15384.844; 2614910.1498684
910.05; 16404.056; 2631608.7711606
911.07; 17247.929; 2649166.4189699
912.09; 17949.77; 2667438.5097751
913.11; 18587.273; 2686359.5517775
914.13; 19263.489; 2705968.9519671
915.14; 20079.966; 2726409.491297
916.16; 21109.395; 2747897.9447032
917.18; 22375.23; 2770674.963343
918.20; 23843.706; 2794946.8272815
919.22; 25429.925; 2820833.3935725
920.23; 27015.67; 2848334.1797386
921.25; 28473.605; 2877319.0805099
922.27; 29691.448; 2907543.6933129
923.29; 30590.751; 2938683.7573047
924.30; 31137.391; 2970380.2781487
925.32; 31343.745; 3002286.8580569
926.34; 31264.503; 3034112.7733586
927.36; 30988.735; 3065657.9684334
928.38; 30629.978; 3096837.9645224
929.39; 30314.727; 3127697.0480611
930.41; 30168.583; 3158407.3638539
931.43; 30299.417; 3189250.8626311
932.45; 30778.254; 3220581.7970212
933.47; 31620.812; 3252770.4188107
934.48; 32774.46; 3286133.4050526
935.50; 34115.871; 3320861.8898525
936.52; 35463.009; 3356961.702668
937.54; 36601.64; 3394220.5932495
938.56; 37322.188; 3432212.9702059
939.57; 37459.024; 3470344.64023
940.59; 36922.655; 3507930.309743
941.61; 35716.438; 3544288.1026427
942.63; 33933.325; 3578830.7636058
943.65; 31733.505; 3611134.1028018
944.66; 29309.016; 3640969.4159906
945.68; 26844.76; 3668296.2229509
946.70; 24485.884; 3693221.7966168
947.72; 22319.05; 3715941.6264301
948.74; 20370.676; 3736678.0956763
949.75; 18620.244; 3755632.700108
950.77; 17022.763; 3772961.1383183
951.79; 15532.691; 3788772.7475748
952.81; 14122.234; 3803148.5728444
953.83; 12789.652; 3816167.8864156
954.84; 11556.782; 3827932.1916269
955.86; 10458.376; 3838578.3675197
956.88; 9527.9001; 3848277.3586361
957.90; 8784.8266; 3857219.9330475
958.92; 8227.2423; 3865594.9107097
959.93; 7831.3753; 3873566.9128676
960.95; 7557.3268; 3881259.9454099
961.97; 7358.522; 3888750.6032945
962.99; 7191.6763; 3896071.4194758
964.01; 7024.43; 3903221.9860681
965.02; 6838.9668; 3910183.7591426
966.04; 6631.397; 3916934.2351815
967.06; 6407.9544; 3923457.2562868
968.08; 6179.7695; 3929747.9950168
969.09; 5958.0111; 3935812.9932016
970.11; 5750.6477; 3941666.9044235
971.13; 5561.2598; 3947328.0269565
972.15; 5389.5552; 3952814.3615508
973.17; 5232.7771; 3958141.1027895
974.18; 5087.1498; 3963319.6017526
975.20; 4948.8164; 3968357.283261
976.22; 4814.1947; 3973257.9257045
977.24; 4680.0715; 3978022.0364903
978.26; 4543.8899; 3982647.520355
979.27; 4404.5183; 3987131.1299495
980.29; 4263.4083; 3991471.0955788
981.31; 4125.6626; 3995670.8420641
982.33; 4000.342; 3999743.0176018
983.35; 3899.4751; 4003712.5150077
984.36; 3835.6854; 4007617.077267
985.38; 3818.9471; 4011504.6006416
986.40; 3853.4853; 4015427.2823738
987.42; 3936.01; 4019433.9707137
988.44; 4056.195; 4023563.0022227
989.45; 4199.6289; 4027838.0431805
990.47; 4352.5911; 4032268.793057
991.49; 4507.248; 4036856.9770109
992.51; 4665.5155; 4041606.2704528
993.53; 4840.0739; 4046533.2568124
994.54; 5051.8215; 4051675.7931148
995.56; 5324.1953; 4057095.5942123
996.58; 5675.9097; 4062873.425348
997.60; 6114.3786; 4069097.5988694
998.62; 6632.1071; 4075848.7976677
999.63; 7207.5848; 4083185.8079718
1000.65; 7810.8615; 4091136.9279053
1001.67; 8412.4309; 4099700.4195516
1002.69; 8992.8009; 4108854.702856
1003.71; 9549.6459; 4118575.8303232
1004.72; 10099.971; 4128857.1652972
1005.74; 10676.191; 4139725.0667465
1006.76; 11317.002; 4151245.2860855
1007.78; 12055.798; 4163517.5679189
1008.80; 12910.389; 4176659.7871022
1009.81; 13877.571; 4190786.555254
1010.83; 14934.529; 4205989.261627
1011.85; 16046.697; 4222324.1067816
1012.87; 17179.221; 4239811.8122658
1013.89; 18307.692; 4258448.2529776
1014.90; 19423.81; 4278220.8529026
1015.92; 20533.369; 4299122.9369223
1016.94; 21646.897; 4321158.5444679
1017.96; 22766.287; 4344333.642174
1018.97; 23872.848; 4368635.1715355
1019.99; 24922.274; 4394004.9713224
1021.01; 25849.973; 4420319.1281908
1022.03; 26586.594; 4447383.1332601
1023.05; 27079.621; 4474949.0185806
1024.06; 27314.075; 4502753.568654
1025.08; 27324.838; 4530569.0744657
1026.10; 27195.223; 4558252.6381631
1027.12; 27040.678; 4585778.8814707
1028.14; 26981.422; 4613244.8048965
1029.15; 27111.852; 4640843.4998762
1030.17; 27476.095; 4668812.9785733
1031.19; 28057.628; 4697374.4327291
1032.21; 28786.674; 4726678.025036
1033.23; 29563.555; 4756772.448742
1034.24; 30291.026; 4787607.4059766
1035.26; 30905.668; 4819068.0420204
1036.28; 31398.617; 4851030.4787448
1037.30; 31819.311; 4883421.1639662
1038.32; 32261.481; 4916261.9596055
1039.33; 32836.456; 4949688.0544607
1040.35; 33643.038; 4983935.215439
1041.37; 34744.255; 5019303.3673455
1042.39; 36158.643; 5056111.305803
1043.41; 37868.267; 5094659.5676225
1044.42; 39839.101; 5135214.0533998
1045.44; 42044.246; 5178013.2813022
1046.46; 44478.677; 5223290.6551817
1047.48; 47156.967; 5271294.412778
1048.50; 50092.063; 5322285.9714843
1049.51; 53261.628; 5376504.0102118
1050.53; 56575.487; 5434095.4146537
1051.55; 59860.331; 5495030.6481239
1052.57; 62874.194; 5559033.8643478
1053.59; 65353.832; 5625561.2453855
1054.60; 67085.648; 5693851.5397116
1055.62; 67979.731; 5763051.97214
1056.64; 68121.36; 5832396.5766991
1057.66; 67777.832; 5901391.4851774
1058.68; 67350.726; 5969951.6177541
1059.69; 67281.15; 6038440.9252434
1060.71; 67932.491; 6107593.2692097
1061.73; 69485.291; 6178326.296993
1062.75; 71877.989; 6251494.9878067
1063.76; 74814.624; 6327653.0469443
1064.78; 77840.077; 6406890.8868253
1065.80; 80461.662; 6488797.3864653
1066.82; 82280.63; 6572555.517521
1067.84; 83093.825; 6657141.4461909
1068.85; 82935.688; 6741566.3980908
1069.87; 82050.637; 6825090.4054294
1070.89; 80808.409; 6907349.8790103
1071.91; 79592.379; 6988371.4861228
1072.93; 78697.146; 7068481.7844215
1073.94; 78265.313; 7148152.4962705
1074.96; 78277.295; 7227835.4043433
1075.98; 78588.809; 7307835.4209205
1077.00; 78995.681; 7388249.6152706
1078.02; 79299.704; 7468973.2921197
1079.03; 79353.956; 7549752.1946224
1080.05; 79077.907; 7630250.0915538
1081.07; 78446.434; 7710105.1765132
1082.09; 77466.501; 7788962.7312692
1083.11; 76157.388; 7866487.6660258
1084.12; 74544.903; 7942371.1609072
1085.14; 72670.28; 8016346.3697176
1086.16; 70605.441; 8088219.661596
1087.18; 68462.098; 8157911.1230752
1088.20; 66384.568; 8225487.7485187
1089.21; 64523.853; 8291170.246999
1090.23; 62999.745; 8355301.2685085
1091.25; 61864.198; 8418276.3523103
1092.27; 61080.155; 8480453.3145795
1093.29; 60524.898; 8542065.049319
1094.30; 60018.218; 8603161.0054033
1095.32; 59366.833; 8663593.8795334
1096.34; 58411.106; 8723053.864711
1097.36; 57060.07; 8781138.5542286
1098.38; 55305.664; 8837437.3341304
1099.39; 53214.556; 8891607.4558737
1100.41; 50902.989; 8943424.5016443
1101.43; 48504.179; 8992799.6630989
1102.45; 46138.054; 9039766.2108823
1103.47; 43890.189; 9084444.5295604
1104.48; 41802.577; 9126997.7486431
1105.50; 39875.088; 9167588.8679683
1106.52; 38074.524; 9206347.090039
1107.54; 36347.859; 9243347.6424004
1108.56; 34637.104; 9278606.7199135
1109.57; 32893.908; 9312091.2992591
1110.59; 31092.246; 9343741.8641618
1111.61; 29237.151; 9373504.0218184
1112.63; 27367.289; 9401362.7411777
1113.64; 25549.838; 9427371.3735486
1114.66; 23867.88; 9451667.8452686
1115.68; 22402.953; 9474473.0842583
1116.70; 21217.39; 9496071.4712033
1117.72; 20341.691; 9516778.4346685
1118.73; 19770.793; 9536904.2488015
1119.75; 19470.131; 9556724.0022896
1120.77; 19388.922; 9576461.088635
1121.79; 19475.558; 9596286.3662083
1122.81; 19689.463; 9616329.3897694
1123.82; 20005.468; 9636694.0927939
1124.84; 20409.937; 9657470.528433
1125.86; 20891.229; 9678736.8977468
1126.88; 21429.145; 9700550.842484
1127.90; 21988.101; 9722933.7806783
1128.91; 22516.842; 9745854.954502
1129.93; 22954.672; 9769221.8196323
1130.95; 23241.556; 9792880.7207607
1131.97; 23328.215; 9816627.8365892
1132.99; 23182.78; 9840226.9064283
1134.00; 22792.448; 9863428.6352086
1135.02; 22160.754; 9885987.3269343
1136.04; 21302.741; 9907672.5980579
1137.06; 20240.649; 9928276.7051901
1138.08; 19001.889; 9947619.8087194
1139.09; 17619.474; 9965555.6728165
1140.11; 16133.605; 9981978.9867973
1141.13; 14592.463; 9996833.4845243
1142.15; 13050.561; 10010118.392112
1143.17; 11564.205; 10021890.253953
1144.18; 10184.945; 10032258.088815
1145.20; 8952.8455; 10041371.69916
1146.22; 7891.5919; 10049404.999228
1147.24; 7006.8179; 10056537.637452
1148.26; 6287.9445; 10062938.493636
1149.27; 5712.761; 10068753.837769
1150.29; 5253.2867; 10074101.456955
1151.31; 4881.3658; 10079070.476667
1152.33; 4572.8355; 10083725.425927
1153.35; 4309.7564; 10088112.57196
1154.36; 4080.7946; 10092266.644724
1155.38; 3880.2415; 10096216.563092
1156.40; 3706.2797; 10099989.395884
1157.42; 3559.0424; 10103612.347483
1158.43; 3438.869; 10107112.967732
1159.45; 3345.0182; 10110518.051884
1160.47; 3274.9851; 10113851.845382
1161.49; 3224.4609; 10117134.207482
1162.51; 3187.8506; 10120379.301875
1163.52; 3159.1353; 10123595.165285
1164.54; 3132.7758; 10126784.195851
1165.56; 3104.3544; 10129944.294719
1166.58; 3070.767; 10133070.203062
1167.60; 3029.9741; 10136154.585965
1168.61; 2980.5191; 10139188.625758
1169.63; 2921.1282; 10142162.208255
1170.65; 2850.6684; 10145064.065694
1171.67; 2768.5601; 10147882.340411
1172.69; 2675.5068; 10150605.89093
1173.70; 2574.2096; 10153226.325227
1174.72; 2469.6805; 10155740.353446
1175.74; 2368.8836; 10158151.774694
1176.76; 2279.6667; 10160472.377007
1177.78; 2209.2194; 10162721.267056
1178.79; 2162.4821; 10164922.580532
1179.81; 2140.98; 10167102.005739
1180.83; 2142.4413; 10169282.918515
1181.85; 2161.3299; 10171483.059059
1182.87; 2190.1576; 10173712.544981
1183.88; 2221.2279; 10175973.659083
1184.90; 2248.3512; 10178262.383621
1185.92; 2268.0935; 10180571.204909
1186.94; 2280.2471; 10182892.398013
1187.96; 2287.4227; 10185220.895586
1188.97; 2293.884; 10187555.970464
1189.99; 2303.9457; 10189901.287734
1191.01; 2320.3768; 10192263.331178
1192.03; 2343.2613; 10194648.670113
1193.05; 2369.6617; 10197060.883462
1194.06; 2394.2185; 10199498.094619
1195.08; 2410.5591; 10201951.939772
1196.10; 2413.1418; 10204408.413956
1197.12; 2399.0178; 10206850.510553
1198.14; 2368.9926; 10209262.042795
1199.15; 2327.828; 10211631.671207
1200.17; 2283.4023; 10213956.076169
1201.19; 2245.051; 10216241.441217
1202.21; 2221.5498; 10218502.883005
1203.22; 2219.2982; 10220762.032767
1204.24; 2241.1911; 10223043.46857
1205.26; 2286.4489; 10225370.97491
1206.28; 2351.4008; 10227764.599416
1207.30; 2430.959; 10230239.210738
1208.31; 2520.368; 10232804.836574
1209.33; 2616.7827; 10235468.608475
1210.35; 2720.3216; 10238237.778473
1211.37; 2834.396; 10241123.071307
1212.39; 2965.2886; 10244141.607139
1213.40; 3121.0905; 10247318.742595
1214.42; 3310.203; 10250688.386415
1215.44; 3539.6649; 10254291.612534
1216.46; 3813.6039; 10258173.696784
1217.48; 4132.1313; 10262380.028118
1218.49; 4490.988; 10266951.660073
1219.51; 4882.1815; 10271921.51017
1220.53; 5295.6901; 10277312.294202
1221.55; 5722.068; 10283137.112475
1222.57; 6155.5044; 10289403.150382
1223.58; 6596.6688; 10296118.274542
1224.60; 7054.6082; 10303299.561251
1225.62; 7547.1351; 10310982.219107
1226.64; 8099.5219; 10319227.182934
1227.66; 8741.8133; 10328125.971666
1228.67; 9505.4837; 10337802.143858
1229.69; 10420.327; 10348409.586626
1230.71; 11512.254; 10360128.564356
1231.73; 12802.154; 10373160.60422
1232.75; 14305.305; 10387722.787487
1233.76; 16030.399; 10404041.041609
1234.78; 17977.213; 10422341.068349
1235.80; 20132.61; 10442835.196166
1236.82; 22465.554; 10465704.161057
1237.84; 24922.944; 10491074.642782
1238.85; 27428.647; 10518995.82154
1239.87; 29887.827; 10549420.33971
1240.89; 32197.293; 10582195.794638
1241.91; 34260.507; 10617071.512353
1242.93; 36003.812; 10653721.839307
1243.94; 37389.176; 10691782.406575
1244.96; 38419.046; 10730891.338018
1245.98; 39130.939; 10770724.945424
1247.00; 39582.61; 10811018.334848
1248.02; 39832.112; 10851565.705588
1249.03; 39919.273; 10892201.802469
1250.05; 39855.304; 10932772.781845
1251.07; 39624.834; 10973109.15326
1252.09; 39200.501; 11013013.571721
1253.10; 38565.531; 11052271.618151
1254.12; 37736.359; 11090685.602762
1255.14; 36776.559; 11128122.552838
1256.16; 35795.762; 11164561.094146
1257.18; 34932.055; 11200120.418854
1258.19; 34322.068; 11235058.802788
1259.21; 34067.425; 11269737.971763
1260.23; 34207.861; 11304560.09824
1261.25; 34709.37; 11339892.738666
1262.27; 35470.957; 11376000.642198
1263.28; 36347.528; 11413000.857532
1264.30; 37181.399; 11450849.917361
1265.32; 37832.621; 11489361.893214
1266.34; 38199.515; 11528247.350689
1267.36; 38224.927; 11567158.677312
1268.37; 37889.156; 11605728.203253
1269.39; 37195.068; 11643591.177316
1270.41; 36153.093; 11680393.465624
1271.43; 34772.728; 11715790.601982
1272.45; 33063.608; 11749447.92844
1273.46; 31044.613; 11781050.004915
1274.48; 28755.775; 11810322.143098
1275.50; 26266.415; 11837060.220539
1276.52; 23674.38; 11861159.717378
1277.54; 21094.853; 11882633.366974
1278.55; 18641.463; 11901609.572237
1279.57; 16405.565; 11918309.729565
1280.59; 14440.461; 11933009.495374
1281.61; 12755.663; 11945994.210071
1282.63; 11322.749; 11957520.280129
1283.64; 10090.382; 11967791.853555
1284.66; 9003.1539; 11976956.675727
1285.68; 8018.0294; 11985118.683669
1286.70; 7113.5485; 11992359.969115
1287.72; 6289.8962; 11998762.812015
1288.73; 5561.2579; 12004423.932562
1289.75; 4944.3369; 12009457.054177
1290.77; 4447.7054; 12013984.626328
1291.79; 4065.7021; 12018123.335669
1292.81; 3778.4334; 12021969.617806
1293.82; 3557.0145; 12025590.505031
1294.84; 3371.4319; 12029022.477206
1295.86; 3197.8571; 12032277.757733
1296.88; 3022.9354; 12035354.975541
1297.89; 2844.0642; 12038250.110132
1298.91; 2666.2852; 12040964.273414
1299.93; 2497.5301; 12043506.651236
1300.95; 2344.2329; 12045892.979151
1301.97; 2208.805; 12048141.447285
1302.98; 2089.4769; 12050268.444578
1304.00; 1982.0189; 12052286.054297
1305.02; 1882.2262; 12054202.07936
1306.04; 1787.9752; 12056022.16092
1307.06; 1700.0509; 12057752.73936
1308.07; 1621.5751; 12059403.432861
1309.09; 1556.4426; 12060987.824293
1310.11; 1507.4933; 12062522.387438
1311.13; 1475.1364; 12064024.012598
1312.15; 1456.8717; 12065507.045085
1313.16; 1447.7761; 12066980.818704
1314.18; 1441.6953; 12068448.402292
1315.20; 1432.7069; 12069906.836043
1316.22; 1416.4222; 12071348.692716
1317.24; 1390.8192; 12072764.486605
1318.25; 1356.478; 12074145.322702
1319.27; 1316.2545; 12075485.212994
1320.29; 1274.5326; 12076782.63215
1321.31; 1236.2507; 12078041.082038
1322.33; 1205.9032; 12079268.639463
1323.34; 1186.6977; 12080476.646525
1324.36; 1180.0127; 12081677.848534
1325.38; 1185.2401; 12082884.371769
1326.40; 1200.0247; 12084105.945151
1327.42; 1220.8313; 12085348.698746
1328.43; 1243.6987; 12086614.730354
1329.45; 1265.0085; 12087902.454381
1330.47; 1282.1066; 12089207.583622
1331.49; 1293.6759; 12090524.489828
1332.51; 1299.8356; 12091847.666363
1333.52; 1302.0209; 12093173.067467
1334.54; 1302.7279; 12094499.18827
1335.56; 1305.2064; 12095827.832103
1336.58; 1313.1407; 12097164.552654
1337.60; 1330.3101; 12098518.75095
1338.61; 1360.1974; 12099903.373157
1339.63; 1405.5219; 12101334.133841
1340.65; 1467.7263; 12102828.215886
1341.67; 1546.499; 12104402.48516
1342.69; 1639.4615; 12106071.386231
1343.70; 1742.1419; 12107844.811466
1344.72; 1848.308; 12109726.309248
1345.74; 1950.6457; 12111711.98242
1346.76; 2041.6755; 12113790.319932
1347.77; 2114.7357; 12115943.029659
1348.79; 2164.8434; 12118146.746868
1349.81; 2189.2729; 12120375.332165
1350.83; 2187.7646; 12122602.382124
1351.85; 2162.3568; 12124803.568073
1352.86; 2116.9025; 12126958.483428
1353.88; 2056.3835; 12129051.793049
1354.90; 1986.1534; 12131073.6115
1355.92; 1911.2366; 12133019.167873
1356.94; 1835.7931; 12134887.926067
1357.95; 1762.8267; 12136682.407612
1358.97; 1694.1672; 12138406.996728
1359.99; 1630.7042; 12140066.98319
1361.01; 1572.7895; 12141668.015048
1362.03; 1520.6815; 12143216.003191
1363.04; 1474.8879; 12144717.375384
1364.06; 1436.2975; 12146179.464309
1365.08; 1406.0628; 12147610.775563
1366.10; 1385.2877; 12149020.938654
1367.12; 1374.658; 12150420.281151
1368.13; 1374.1741; 12151819.13107
1369.15; 1383.1066; 12153227.073949
1370.17; 1400.1924; 12154652.409377
1371.19; 1423.9694; 12156101.948768
1372.21; 1453.0693; 12157581.11062
1373.22; 1486.2865; 12159094.086155
1374.24; 1522.3414; 12160643.76402
1375.26; 1559.4151; 12162231.181251
1376.28; 1594.6863; 12163854.5031
1377.30; 1624.1749; 12165507.843039
1378.31; 1643.1336; 12167180.482089
1379.33; 1647.0452; 12168857.103005
1380.35; 1633.0254; 12170519.452402
1381.37; 1601.2121; 12172149.417203
1382.39; 1555.6334; 12173732.984842
1383.40; 1504.1433; 12175264.13778
1384.42; 1457.2765; 12176747.582357
1385.44; 1426.2193; 12178199.412028
1386.46; 1420.3947; 12179645.312546
1387.48; 1445.3091; 12181116.574795
1388.49; 1501.2442; 12182644.776561
1389.51; 1583.1331; 12184256.337745
1390.53; 1681.6124; 12185968.146626
1391.55; 1784.9252; 12187785.123458
1392.56; 1881.1585; 12189700.061684
1393.58; 1960.2817; 12191695.543893
1394.60; 2015.5868; 12193747.324316
1395.62; 2044.3493; 12195828.383639
1396.64; 2047.734; 12197912.888443
1397.65; 2030.1129; 12199979.455736
1398.67; 1998.0104; 12202013.344101
1399.69; 1958.8829; 12204007.402317
1400.71; 1919.9056; 12205961.783403
1401.73; 1886.9221; 12207882.588628
1402.74; 1863.7022; 12209779.757013
1403.76; 1851.644; 12211664.650732
1404.78; 1849.9914; 12213547.862164
1405.80; 1856.5285; 12215437.728104
1406.82; 1868.5672; 12217339.848921
1407.83; 1883.9229; 12219257.601172
1408.85; 1901.5452; 12221193.292092
1409.87; 1921.5644; 12223149.361758
1410.89; 1944.7222; 12225129.005012
1411.91; 1971.3947; 12227135.799705
1412.92; 2000.6039; 12229172.328171
1413.94; 2029.4457; 12231238.216322
1414.96; 2053.2257; 12233328.311517
1415.98; 2066.3288; 12235431.745099
1417.00; 2063.5541; 12237532.354136
1418.01; 2041.4566; 12239610.468821
1419.03; 1999.2234; 12241645.59195
1420.05; 1938.7916; 12243619.198135
1421.07; 1864.2077; 12245516.881152
1422.09; 1780.5171; 12247329.370691
1423.10; 1692.6293; 12249052.394306
1424.12; 1604.5741; 12250685.781497
1425.14; 1519.3556; 12252232.419885
1426.16; 1439.3343; 12253697.600064
1427.18; 1366.8317; 12255088.975757
1428.19; 1304.5698; 12256416.971532
1429.21; 1255.6571; 12257695.176241
1430.23; 1223.0618; 12258940.200401
1431.25; 1208.7696; 12260170.675705
1432.27; 1212.9869; 12261405.44406
1433.28; 1233.7601; 12262661.358555
1434.30; 1267.2232; 12263951.337115
1435.32; 1308.4469; 12265283.279609
1436.34; 1352.6272; 12266660.195766
1437.36; 1396.2356; 12268081.503394
1438.37; 1437.7748; 12269545.096124
1439.39; 1477.9414; 12271049.576731
1440.41; 1519.2067; 12272596.063645
1441.43; 1565.0098; 12274189.176052
1442.44; 1618.8495; 12275837.094939
1443.46; 1683.5477; 12277550.873855
1444.48; 1760.8571; 12279343.350445
1445.50; 1851.4587; 12281228.055542
1446.52; 1955.2805; 12283218.446765
1447.53; 2071.9979; 12285327.651191
1448.55; 2201.5471; 12287568.731163
1449.57; 2344.4898; 12289955.320567
1450.59; 2502.0866; 12292502.336793
1451.61; 2675.9889; 12295226.378007
1452.62; 2867.5278; 12298145.397523
1453.64; 3076.6972; 12301277.342501
1454.66; 3301.0523; 12304637.671253
1455.68; 3534.8516; 12308235.997678
1456.70; 3768.7984; 12312072.471816
1457.71; 3990.6369; 12316134.767973
1458.73; 4186.6437; 12320396.590615
1459.75; 4343.7616; 12324818.352516
1460.77; 4451.8656; 12329350.159566
1461.79; 4505.528; 12333936.592666
1462.80; 4504.7392; 12338522.222741
1463.82; 4454.3314; 12343056.539844
1464.84; 4362.2696; 12347497.142032
1465.86; 4237.3545; 12351810.586091
1466.88; 4087.0934; 12355971.070815
1467.89; 3916.435; 12359957.832687
1468.91; 3727.7502; 12363752.521548
1469.93; 3521.9764; 12367337.741543
1470.95; 3300.4121; 12370697.418611
1471.97; 3066.407; 12373818.888651
1472.98; 2826.2456; 12376695.884737
1474.00; 2588.8399; 12379331.211996
1475.02; 2364.314; 12381737.981599
1476.04; 2161.9869; 12383938.790964
1477.06; 1988.4794; 12385962.977182
1478.07; 1846.606; 12387842.742363
1479.09; 1735.3906; 12389609.295106
1480.11; 1651.1071; 12391290.050899
1481.13; 1588.8663; 12392907.448211
1482.15; 1544.106; 12394479.281486
1483.16; 1513.4454; 12396019.903644
1484.18; 1494.6872; 12397541.430666
1485.20; 1486.1479; 12399054.265105
1486.22; 1485.7986; 12400566.743972
1487.23; 1490.7647; 12402084.278109
1488.25; 1497.5527; 12403608.722175
1489.27; 1503.0053; 12405138.716714
1490.29; 1505.607; 12406671.359693
1491.31; 1506.5415; 12408204.953965
1492.32; 1509.9445; 12409742.012358
1493.34; 1522.1107; 12411291.455342
1494.36; 1549.8713; 12412869.15748
1495.38; 1598.7726; 12414496.638995
1496.40; 1671.853; 12416198.513181
1497.41; 1769.6457; 12417999.936179
1498.43; 1891.5418; 12419925.444113
1499.45; 2038.0224; 12422000.06293
1500.47; 2212.7617; 12424252.55881
1501.49; 2423.4506; 12426719.526972
1502.50; 2680.522; 12429448.182698
1503.52; 2993.7041; 12432495.64426
1504.54; 3367.2472; 12435923.356649
1505.56; 3795.4046; 12439786.914799
1506.58; 4259.9801; 12444123.390693
1507.59; 4731.3165; 12448939.666733
1508.61; 5173.0649; 12454205.623608
1509.63; 5549.7665; 12459855.04639
1510.65; 5835.1627; 12465794.990175
1511.67; 6018.6593; 12471921.725633
1512.68; 6107.7505; 12478139.152043
1513.70; 6125.3975; 12484374.542339
1514.72; 6102.9822; 12490587.114908
1515.74; 6070.955; 12496767.085112
1516.76; 6050.1273; 12502925.853655
1517.77; 6046.3966; 12509080.824511
1518.79; 6050.5512; 12515240.024524
1519.81; 6043.0841; 12521391.623354
1520.83; 6002.2433; 12527501.647978
1521.85; 5912.4747; 12533520.292077
1522.86; 5770.3577; 12539394.267222
1523.88; 5586.094; 12545080.669822
1524.90; 5380.2314; 12550557.513231
1525.92; 5176.98; 12555827.455499
1526.94; 4996.6008; 12560913.779458
1527.95; 4849.5391; 12565850.40096
1528.97; 4734.2022; 12570669.61456
1529.99; 4638.8775; 12575391.791706
1531.01; 4546.8005; 12580020.238431
1532.03; 4442.3586; 12584542.367838
1533.04; 4316.1901; 12588936.063125
1534.06; 4167.5359; 12593178.434862
1535.08; 4003.3326; 12597253.654707
1536.10; 3834.7365; 12601157.250967
1537.11; 3672.6007; 12604895.800036
1538.13; 3523.6208; 12608482.693983
1539.15; 3388.4215; 12611931.960894
1540.17; 3262.0174; 12615252.553894
1541.19; 3136.192; 12618445.061967
1542.20; 3002.7365; 12621501.718139
1543.22; 2856.3468; 12624409.355943
1544.24; 2696.2705; 12627154.042957
1545.26; 2526.3607; 12629725.769089
1546.28; 2353.7715; 12632121.806894
1547.29; 2186.9223; 12634347.999432
1548.31; 2033.4608; 12636417.974741
1549.33; 1898.7969; 12638350.868062
1550.35; 1785.4739; 12640168.403422
1551.37; 1693.3281; 12641892.138408
1552.38; 1620.1804; 12643541.412147
1553.40; 1562.7272; 12645132.200982
1554.42; 1517.3542; 12646676.802104
1555.44; 1480.707; 12648184.097926
1556.46; 1449.9749; 12649660.109809
1557.47; 1422.9364; 12651108.597616
1558.49; 1397.86; 12652531.558758
1559.51; 1373.3694; 12653929.589584
1560.53; 1348.363; 12655302.164981
1561.55; 1322.042; 12656647.946715
1562.56; 1294.0464; 12657965.230128
1563.58; 1264.6367; 12659252.575671
1564.60; 1234.8114; 12660509.560385
1565.62; 1206.2435; 12661737.46418
1566.64; 1180.9622; 12662939.632755
1567.65; 1160.8073; 12664121.284471
1568.67; 1146.7932; 12665288.67044
1569.69; 1138.6064; 12666447.722584
1570.71; 1134.4588; 12667602.552702
1571.73; 1131.4273; 12668754.296821
1572.74; 1126.2373; 12669900.757804
1573.76; 1116.2704; 12671037.072876
1574.78; 1100.4536; 12672157.287105
1575.80; 1079.6983; 12673256.37334
1576.82; 1056.691; 12674332.039168
1577.83; 1035.0661; 12675385.691798
1578.85; 1018.2199; 12676422.195695
1579.87; 1008.167; 12677448.466192
1580.89; 1004.8367; 12678471.346541
1581.90; 1006.0544; 12679495.466536
1582.92; 1008.2155; 12680521.786359
1583.94; 1007.4153; 12681547.291698
1584.96; 1000.6569; 12682565.917241
1585.98; 986.74247; 12683570.378497
1586.99; 966.58842; 12684554.323799
1588.01; 942.90434; 12685514.159734
1589.03; 919.38449; 12686450.05347
1590.05; 899.69243; 12687365.901537
1591.07; 886.54579; 12688268.366898
1592.08; 881.13414; 12689165.323427
1593.10; 882.97156; 12690064.15037
1594.12; 890.15103; 12690970.285703
1595.14; 899.87263; 12691886.317207
1596.16; 909.08147; 12692811.722916
1597.17; 915.06603; 12693743.220644
1598.19; 915.91117; 12694675.578692
1599.21; 910.74925; 12695602.682126
1600.23; 899.79328; 12696518.63286
1601.25; 884.16762; 12697418.677348
1602.26; 865.57844; 12698299.798844
1603.28; 845.89355; 12699160.881978
1604.30; 826.72452; 12700002.451861
1605.32; 809.11273; 12700826.09371
1606.34; 793.40466; 12701633.745413
1607.35; 779.35378; 12702427.093926
1608.37; 766.41927; 12703207.275668
1609.39; 754.16324; 12703974.981301
1610.41; 742.60717; 12704730.923353
1611.43; 732.41197; 12705476.487129
1612.44; 724.79907; 12706214.30131
1613.46; 721.2164; 12706948.468486
1614.48; 722.84358; 12707684.292062
1615.50; 730.09336; 12708427.495602
1616.52; 742.27708; 12709183.101638
1617.53; 757.55677; 12709954.261739
1618.55; 773.2196; 12710741.365928
1619.57; 786.2106; 12711541.694388
1620.59; 793.7802; 12712349.728374
1621.61; 794.06888; 12713158.056227
1622.62; 786.47151; 12713958.650289
1623.64; 771.69123; 12714744.198666
1624.66; 751.484; 12715509.176953
1625.68; 728.18182; 12716250.434619
1626.70; 704.13932; 12716967.218064
1627.71; 681.25953; 12717660.710868
1628.73; 660.7186; 12718333.293889
1629.75; 642.94034; 12718987.779411
1630.77; 627.79062; 12719626.843168
1631.78; 614.89547; 12720252.780225
1632.80; 603.95511; 12720867.580466
1633.82; 594.93758; 12721473.201249
1634.84; 588.08647; 12722071.847893
1635.86; 583.74863; 12722666.078804
1636.87; 582.09627; 12723258.627686
1637.89; 582.85924; 12723851.953242
1638.91; 585.18334; 12724447.644631
1639.93; 587.68858; 12725045.886244
1640.95; 588.73178; 12725645.189791
1641.96; 586.80457; 12726242.531524
1642.98; 580.94651; 12726833.910002
1644.00; 571.04157; 12727415.205675
1645.02; 557.89886; 12727983.122644
1646.04; 543.08407; 12728535.958795
1647.05; 528.54428; 12729073.994063
1648.07; 516.13111; 12729599.393261
1649.09; 507.15497; 12730115.655135
1650.11; 502.09008; 12730626.761171
1651.13; 500.50227; 12731136.250889
1652.14; 501.20587; 12731646.456833
1653.16; 502.59389; 12732158.075725
1654.18; 503.04494; 12732670.153771
1655.20; 501.29923; 12733180.454756
1656.22; 496.71521; 12733686.089406
1657.23; 489.35744; 12734184.234161
1658.25; 479.91248; 12734672.764361
1659.27; 469.47075; 12735150.665326
1660.29; 459.2386; 12735618.150404
1661.31; 450.25386; 12736076.489401
1662.32; 443.1692; 12736527.616521
1663.34; 438.14644; 12736973.630695
1664.36; 434.87589; 12737416.315585
1665.38; 432.70525; 12737856.790855
1666.40; 430.83838; 12738295.365738
1667.41; 428.55018; 12738731.611333
1668.43; 425.36363; 12739164.613149
1669.45; 421.14838; 12739593.324026
1670.47; 416.12356; 12740016.919854
1671.49; 410.77381; 12740435.069864
1672.50; 405.70985; 12740848.06498
1673.52; 401.5156; 12741256.790534
1674.54; 398.6211; 12741662.569613
1675.56; 397.22622; 12742066.928759
1676.57; 397.28092; 12742471.343597
1677.59; 398.51135; 12742877.010954
1678.61; 400.47281; 12743284.674994
1679.63; 402.61336; 12743694.518022
1680.65; 404.33995; 12744106.118638
1681.66; 405.08823; 12744518.480972
1682.68; 404.39988; 12744930.142604
1683.70; 402.00552; 12745339.366878
1684.72; 397.8997; 12745744.411602
1685.74; 392.3841; 12746143.841688
1686.75; 386.05272; 12746536.826701
1687.77; 379.70368; 12746923.348662
1688.79; 374.18428; 12747304.25211
1689.81; 370.20111; 12747681.100862
1690.83; 368.14524; 12748055.856828
1691.84; 367.98447; 12748430.449136
1692.86; 369.25765; 12748806.33749
1693.88; 371.17518; 12749184.177809
1694.90; 372.79621; 12749563.66826
1695.92; 373.22985; 12749943.600146
1696.93; 371.80387; 12750322.080442
1697.95; 368.16039; 12750696.851828
1698.97; 362.26802; 12751065.625037
1699.99; 354.36922; 12751426.357613
1701.01; 344.89975; 12751777.450673
1702.02; 334.4163; 12752117.872034
1703.04; 323.55156; 12752447.233557
1704.06; 312.99171; 12752765.845612
1705.08; 303.4533; 12753074.74798
1706.10; 295.63308; 12753375.689696
1707.11; 290.11851; 12753671.01782
1708.13; 287.27158; 12753963.44789
1709.15; 287.12159; 12754255.72528
1710.17; 289.31264; 12754550.233059
1711.19; 293.1406; 12754848.637544
1712.20; 297.68636; 12755151.669408
1713.22; 302.01606; 12755459.108722
1714.24; 305.3915; 12755769.984091
1715.26; 307.42464; 12756082.929104
1716.28; 308.12604; 12756396.58812
1717.29; 307.83179; 12756709.947596
1718.31; 307.03426; 12757022.495225
1719.33; 306.175; 12757334.168168
1720.35; 305.46952; 12757645.122959
1721.37; 304.82181; 12757955.418405
1722.38; 303.85509; 12758264.72977
1723.40; 302.04669; 12758572.200262
1724.42; 298.92253; 12758876.490497
1725.44; 294.25044; 12759176.024743
1726.45; 288.17481; 12759469.374269
1727.47; 281.25498; 12759755.679697
1728.49; 274.39713; 12760035.004139
1729.51; 268.69726; 12760308.526359
1730.53; 265.23124; 12760578.520315
1731.54; 264.83746; 12760848.113417
1732.56; 267.93579; 12761120.860492
1733.58; 274.41814; 12761400.20632
1734.60; 283.63251; 12761688.931976
1735.62; 294.46684; 12761988.686508
1736.63; 305.52146; 12762299.694166
1737.65; 315.34178; 12762620.698489
1738.67; 322.6684; 12762949.160996
1739.69; 326.65397; 12763281.680639
1740.71; 326.99905; 12763614.551564
1741.72; 323.97481; 12763944.343938
1742.74; 318.32654; 12764268.386617
1743.76; 311.08313; 12764585.055821
1744.78; 303.32339; 12764893.825944
1745.80; 295.96243; 12765195.102924
1746.81; 289.61392; 12765489.917401
1747.83; 284.5585; 12765779.585679
1748.85; 280.81233; 12766065.440518
1749.87; 278.25615; 12766348.693268
1750.89; 276.76563; 12766630.428732
1751.90; 276.28729; 12766911.677267
1752.92; 276.82906; 12767193.477306
1753.94; 278.37285; 12767476.848858
1754.96; 280.75242; 12767762.642711
1755.98; 283.55968; 12768051.294234
1756.99; 286.13662; 12768342.568964
1758.01; 287.67956; 12768635.414343
1759.03; 287.43791; 12768928.013727
1760.05; 284.94755; 12769218.078035
1761.07; 280.21711; 12769503.326963
1762.08; 273.79256; 12769782.035972
1763.10; 266.66206; 12770053.486437
1764.12; 260.01627; 12770318.171777
1765.14; 254.93031; 12770577.679827
1766.16; 252.06403; 12770834.27013
1767.17; 251.47503; 12771090.260854
1768.19; 252.60403; 12771347.400853
1769.21; 254.43709; 12771606.406835
1770.23; 255.79253; 12771866.792588
1771.24; 255.64227; 12772127.02539
1772.26; 253.37071; 12772384.945842
1773.28; 248.89901; 12772638.314295
1774.30; 242.6507; 12772885.322235
1775.32; 235.3859; 12773124.934919
1776.33; 227.96966; 12773356.998191
1777.35; 221.15224; 12773582.12163
1778.37; 215.42402; 12773801.413985
1779.39; 210.97332; 12774016.175718
1780.41; 207.73653; 12774227.642539
1781.42; 205.50066; 12774436.83334
1782.44; 204.00868; 12774644.505377
1783.46; 203.02854; 12774851.179669
1784.48; 202.37031; 12775057.183907
1785.50; 201.86215; 12775262.670863
1786.51; 201.31278; 12775467.598583
1787.53; 200.49097; 12775671.689735
1788.55; 199.14136; 12775874.407046
1789.57; 197.0367; 12776074.981907
1790.59; 194.04842; 12776272.514829
1791.60; 190.20777; 12776466.138127
1792.62; 185.73156; 12776655.20484
1793.64; 180.99888; 12776839.453894
1794.66; 176.48174; 12777019.104688
1795.68; 172.64787; 12777194.852772
1796.69; 169.8621; 12777367.765058
1797.71; 168.31157; 12777539.098975
1798.73; 167.9724; 12777710.087625
1799.75; 168.62285; 12777881.738409
1800.77; 169.89696; 12778054.686182
1801.78; 171.36394; 12778229.127279
1802.80; 172.61538; 12778404.842283
1803.82; 173.3425; 12778581.297469
1804.84; 173.38938; 12778757.800378
1805.86; 172.77268; 12778933.675509
1806.87; 171.66469; 12779108.422758
1807.89; 170.34301; 12779281.82459
1808.91; 169.11674; 12779453.978133
1809.93; 168.24533; 12779625.244623
1810.95; 167.86922; 12779796.12825
1811.96; 167.97056; 12779967.115036
1812.98; 168.37606; 12780138.514601
1814.00; 168.80313; 12780310.348898
1815.02; 168.938; 12780482.320494
1816.04; 168.52404; 12780653.870699
1817.05; 167.43389; 12780824.311172
1818.07; 165.70302; 12780992.9897
1819.09; 163.5139; 12781159.439793
1820.11; 161.13547; 12781323.468748
1821.12; 158.83804; 12781485.159017
1822.14; 156.81172; 12781644.786584
1823.16; 155.11574; 12781802.687709
1824.18; 153.675; 12781959.122228
1825.20; 152.32388; 12782114.181368
1826.21; 150.8801; 12782267.770797
1827.23; 149.22115; 12782419.671488
1828.25; 147.33491; 12782569.652067
1829.27; 145.32554; 12782717.587194
1830.29; 143.37231; 12782863.534021
1831.30; 141.6562; 12783007.733921
1832.32; 140.28088; 12783150.533803
1833.34; 139.21704; 12783292.250747
1834.36; 138.29095; 12783433.024965
1835.38; 137.22275; 12783572.711799
1836.39; 135.70339; 12783710.851997
1837.41; 133.48606; 12783846.735048
1838.43; 130.46369; 12783979.541455
1839.45; 126.70919; 12784108.525946
1840.47; 122.46696; 12784233.192022
1841.48; 118.09902; 12784353.41173
1842.50; 114.00205; 12784469.4609
1843.52; 110.51814; 12784581.963602
1844.54; 107.86246; 12784691.762933
1845.56; 106.08454; 12784799.75242
1846.57; 105.07036; 12784906.709514
1847.59; 104.58198; 12785013.169459
1848.61; 104.32333; 12785119.366105
1849.63; 104.01555; 12785225.249441
1850.65; 103.46426; 12785330.571593
1851.66; 102.60337; 12785435.017391
1852.68; 101.50527; 12785538.34538
1853.70; 100.35505; 12785640.502487
1854.72; 99.394293; 12785741.681588
1855.74; 98.848604; 12785842.305202
1856.75; 98.857508; 12785942.937879
1857.77; 99.426612; 12786044.14988
1858.79; 100.41674; 12786146.369792
1859.81; 101.57499; 12786249.768753
1860.83; 102.60021; 12786354.211344
1861.84; 103.22436; 12786459.289288
1862.86; 103.2852; 12786564.429163
1863.88; 102.76775; 12786669.042294
1864.90; 101.80146; 12786772.671791
1865.91; 100.61467; 12786875.093182
1866.93; 99.462064; 12786976.341271
1867.95; 98.550262; 12787076.661185
1868.97; 97.986411; 12787176.407123
1869.99; 97.766128; 12787275.928822
1871.00; 97.802059; 12787375.487098
1872.02; 97.979202; 12787475.225698
1873.04; 98.213281; 12787575.202579
1874.06; 98.487916; 12787675.459028
1875.08; 98.85525; 12787776.089407
1876.09; 99.399641; 12787877.273952
1877.11; 100.17929; 12787979.252147
1878.13; 101.17016; 12788082.239007
1879.15; 102.2366; 12788186.311459
1880.17; 103.14359; 12788291.307179
1881.18; 103.61; 12788396.77769
1882.20; 103.38689; 12788502.021085
1883.22; 102.33464; 12788606.193328
1884.24; 100.47275; 12788708.470257
1885.26; 97.984995; 12788808.214754
1886.27; 95.177495; 12788905.101337
1887.29; 92.403351; 12788999.163961
1888.31; 89.977446; 12789090.757118
1889.33; 88.107356; 12789180.446605
1890.35; 86.859399; 12789268.865725
1891.36; 86.166322; 12789356.579322
1892.38; 85.869462; 12789443.990729
1893.40; 85.778386; 12789531.309424
1894.42; 85.727829; 12789618.576655
1895.44; 85.615735; 12789705.729779
1896.45; 85.414856; 12789792.678416
1897.47; 85.160245; 12789879.367871
1898.49; 84.922181; 12789965.814986
1899.51; 84.776678; 12790052.113986
1900.53; 84.783452; 12790138.419882
1901.54; 84.975915; 12790224.921697
1902.56; 85.362059; 12790311.816589
1903.58; 85.931276; 12790399.290921
1904.60; 86.661468; 12790487.508555
1905.62; 87.522786; 12790576.602975
1906.63; 88.477661; 12790666.669416
1907.65; 89.47951; 12790757.755696
1908.67; 90.473527; 12790849.853842
1909.69; 91.401891; 12790942.897024
1910.71; 92.213388; 12791036.766274
1911.72; 92.875027; 12791131.309044
1912.74; 93.381863; 12791226.36775
1913.76; 93.761474; 12791321.812885
1914.78; 94.071133; 12791417.57324
1915.79; 94.387855; 12791513.656003
1916.81; 94.793498; 12791610.151694
1917.83; 95.358205; 12791707.222232
1918.85; 96.125729; 12791805.074077
1919.87; 97.10367; 12791903.921423
1920.88; 98.260747; 12792003.946623
1921.90; 99.532; 12792105.265904
1922.92; 100.83135; 12792207.907866
1923.94; 102.06921; 12792311.809922
1924.96; 103.1713; 12792416.833855
1925.97; 104.09361; 12792522.796653
1926.99; 104.82909; 12792629.508139
1928.01; 105.40351; 12792736.804359
1929.03; 105.86147; 12792844.566771
1930.05; 106.24756; 12792952.722202
1931.06; 106.58992; 12793061.226145
1932.08; 106.89361; 12793170.039224
1933.10; 107.1473; 12793279.110555
1934.12; 107.34163; 12793388.379704
1935.14; 107.49128; 12793497.801188
1936.15; 107.65026; 12793607.384509
1937.17; 107.91092; 12793717.233171
1938.19; 108.38328; 12793827.562676
1939.21; 109.15972; 12793938.682561
1940.23; 110.27741; 12794050.940206
1941.24; 111.69389; 12794164.63977
1942.26; 113.28769; 12794279.961748
1943.28; 114.8869; 12794396.91165
1944.30; 116.31754; 12794515.317891
1945.32; 117.45477; 12794634.881777
1946.33; 118.25754; 12794755.262851
1947.35; 118.7734; 12794876.169045
1948.37; 119.111; 12794997.418898
1949.39; 119.39134; 12795118.954134
1950.41; 119.69729; 12795240.800807
1951.42; 120.0417; 12795362.99808
1952.44; 120.3672; 12795485.526695
1953.46; 120.57701; 12795608.268883
1954.48; 120.58359; 12795731.017777
1955.50; 120.35423; 12795853.533192
1956.51; 119.93395; 12795975.620773
1957.53; 119.43599; 12796097.201457
1958.55; 119.0037; 12796218.342089
1959.57; 118.75946; 12796339.234094
1960.58; 118.76164; 12796460.128323
1961.60; 118.9866; 12796581.251547
1962.62; 119.34171; 12796702.736262
1963.64; 119.70257; 12796824.588311
1964.66; 119.95741; 12796946.69978
1965.67; 120.04018; 12797068.895502
1966.69; 119.93931; 12797190.988542
1967.71; 119.68115; 12797312.818792
1968.73; 119.29823; 12797434.259241
1969.75; 118.79921; 12797555.191714
1970.76; 118.15631; 12797675.469734
1971.78; 117.31727; 12797794.893657
1972.80; 116.23779; 12797913.21871
1973.82; 114.91976; 12798030.202068
1974.84; 113.43762; 12798145.676671
1975.85; 111.93852; 12798259.625252
1976.87; 110.61252; 12798372.224023
1977.89; 109.64107; 12798483.8339
1978.91; 109.14115; 12798594.934885
1979.93; 109.1252; 12798706.019626
1980.94; 109.49176; 12798817.477515
1981.96; 110.05155; 12798929.505249
1982.98; 110.58086; 12799042.071791
1984.00; 110.8853; 12799154.948237
1985.02; 110.85342; 12799267.792237
1986.03; 110.48348; 12799380.259652
1987.05; 109.87593; 12799492.108609
1988.07; 109.19579; 12799603.265211
1989.09; 108.61834; 12799713.833993
1990.11; 108.27657; 12799824.054873
1991.12; 108.22706; 12799934.225355
1992.14; 108.44383; 12800044.616498
1993.16; 108.83987; 12800155.41079
1994.18; 109.30632; 12800266.679905
1995.20; 109.7536; 12800378.404337
1996.21; 110.13878; 12800490.520866
1997.23; 110.46909; 12800602.973637
1998.25; 110.78121; 12800715.744127
1999.27; 111.10571; 12800828.844947
2000.29; 111.43287; 12800942.2788
2001.30; 111.69638; 12801055.980896
2002.32; 111.78565; 12801169.773864
2003.34; 111.58607; 12801283.363666
2004.36; 111.03481; 12801396.392313
2005.37; 110.17119; 12801508.541832
2006.39; 109.1595; 12801619.661488
2007.41; 108.26956; 12801729.875226
2008.43; 107.81422; 12801839.625448
2009.45; 108.05853; 12801949.624363
2010.46; 109.1276; 12802060.71155
2011.48; 110.94353; 12802173.647275
2012.50; 113.21492; 12802288.895174
2013.52; 115.48732; 12802406.456282
2014.54; 117.2441; 12802525.805717
2015.55; 118.03109; 12802645.956275
2016.57; 117.57071; 12802765.63818
2017.59; 115.83403; 12802883.552226
2018.61; 113.05189; 12802998.634175
2019.63; 109.66357; 12803110.26696
2020.64; 106.21897; 12803218.393286
2021.66; 103.26128; 12803323.508815
2022.68; 101.22006; 12803426.546472
2023.70; 100.33875; 12803528.686993
2024.72; 100.64955; 12803631.143889
2025.73; 101.9955; 12803734.970905
2026.75; 104.08887; 12803840.928881
2027.77; 106.58837; 12803949.431247
2028.79; 109.1765; 12804060.56821
2029.81; 111.62078; 12804174.193344
2030.82; 113.80831; 12804290.045293
2031.84; 115.74925; 12804407.873036
2032.86; 117.55146; 12804527.535353
2033.88; 119.37416; 12804649.0531
2034.90; 121.37237; 12804772.604937
2035.91; 123.64557; 12804898.47079
2036.93; 126.20274; 12805026.93973
2037.95; 128.95174; 12805158.207036
2038.97; 131.71467; 12805292.286884
2039.99; 134.26407; 12805428.961918
2041.00; 136.37006; 12805567.780757
2042.02; 137.84641; 12805708.102451
2043.04; 138.58594; 12805849.176954
2044.06; 138.58011; 12805990.245526
2045.08; 137.92285; 12806130.645031
2046.09; 136.80213; 12806269.903696
2047.11; 135.48319; 12806407.819738
2048.13; 134.28478; 12806544.515847
2049.15; 133.54712; 12806680.461053
2050.17; 133.58916; 12806816.449051
2051.18; 134.65545; 12806953.522485
2052.20; 136.8593; 12807092.83935
2053.22; 140.13601; 12807235.491764
2054.24; 144.22411; 12807382.305685
2055.25; 148.69059; 12807533.66629
2056.27; 153.00586; 12807689.419654
2057.29; 156.65865; 12807848.891405
2058.31; 159.28488; 12808011.036541
2059.33; 160.77403; 12808174.697568
2060.34; 161.31743; 12808338.911747
2061.36; 161.37587; 12808503.185416
2062.38; 161.56716; 12808667.653813
2063.40; 162.49941; 12808833.071201
2064.42; 164.59538; 12809000.622192
2065.43; 167.95949; 12809171.597703
2066.45; 172.32919; 12809347.021379
2067.47; 177.12875; 12809527.330805
2068.49; 181.61368; 12809712.205696
2069.51; 185.06652; 12809900.595431
2070.52; 186.98935; 12810090.942522
2071.54; 187.23863; 12810281.543367
2072.56; 186.0648; 12810470.949306
2073.58; 184.04625; 12810658.30045
2074.60; 181.93705; 12810843.50452
2075.61; 180.47154; 12811027.216765
2076.63; 180.1796; 12811210.631827
2077.65; 181.26208; 12811395.148799
2078.67; 183.55783; 12811582.002744
2079.69; 186.60791; 12811771.961542
2080.70; 189.79554; 12811965.165212
2081.72; 192.52038; 12812161.142649
2082.74; 194.35731; 12812358.990003
2083.76; 195.15574; 12812557.650126
2084.78; 195.05329; 12812756.20596
2085.79; 194.4032; 12812954.100031
2086.81; 193.64009; 12813151.217283
2087.83; 193.12682; 12813347.812056
2088.85; 193.03079; 12813544.309071
2089.87; 193.2684; 12813741.047967
2090.88; 193.53554; 12813938.058798
2091.90; 193.4143; 12814134.946209
2092.92; 192.52201; 12814330.925303
2093.94; 190.65467; 12814525.003531
2094.96; 187.87833; 12814716.255562
2095.97; 184.53836; 12814904.107647
2096.99; 181.18305; 12815088.544172
2098.01; 178.42509; 12815270.173211
2099.03; 176.78389; 12815450.131587
2100.04; 176.55669; 12815629.858681
2101.06; 177.75513; 12815810.805735
2102.08; 180.12175; 12815994.161906
2103.10; 183.21437; 12816180.666231
2104.12; 186.52593; 12816370.541583
2105.13; 189.59935; 12816563.545539
2106.15; 192.10332; 12816759.09843
2107.17; 193.85299; 12816956.432404
2108.19; 194.78102; 12817154.711078
2109.21; 194.88246; 12817353.093014
2110.22; 194.16341; 12817550.742989
2111.24; 192.61831; 12817746.820117
2112.26; 190.24523; 12817940.48155
2113.28; 187.09045; 12818130.931555
2114.30; 183.29952; 12818317.522555
2115.31; 179.14769; 12818499.887172
2116.33; 175.02954; 12818678.059695
2117.35; 171.40281; 12818852.540356
2118.37; 168.69897; 12819024.268625
2119.39; 167.2267; 12819194.498192
2120.40; 167.09819; 12819364.596938
2121.42; 168.20207; 12819535.819383
2122.44; 170.23222; 12819709.108439
2123.46; 172.7643; 12819884.975037
2124.48; 175.35747; 12820063.481377
2125.49; 177.65267; 12820244.324134
2126.51; 179.44112; 12820426.98745
2127.53; 180.68782; 12820610.919849
2128.55; 181.50891; 12820795.688089
2129.57; 182.11487; 12820981.073165
2130.58; 182.73915; 12821167.093738
2131.60; 183.57292; 12821353.963052
2132.62; 184.72057; 12821542.000623
2133.64; 186.18219; 12821731.526057
2134.66; 187.86036; 12821922.759797
2135.67; 189.58334; 12822115.747461
2136.69; 191.13571; 12822310.31537
2137.71; 192.29026; 12822506.058558
2138.73; 192.83893; 12822702.360262
2139.75; 192.62329; 12822898.442463
2140.76; 191.56493; 12823093.447296
2141.78; 189.69267; 12823286.546252
2142.80; 187.15972; 12823477.066771
2143.82; 184.24075; 12823664.615906
2144.84; 181.30091; 12823849.172411
2145.85; 178.73502; 12824031.116946
2146.87; 176.88544; 12824211.17869
2147.89; 175.95712; 12824390.295442
2148.91; 175.95396; 12824569.408985
2149.92; 176.65907; 12824749.240296
2150.94; 177.67094; 12824930.101643
2151.96; 178.49199; 12825111.798784
2152.98; 178.64879; 12825293.655544
2154.00; 177.81177; 12825474.660251
2155.01; 175.88033; 12825653.698839
2156.03; 173.00855; 12825829.814073
2157.05; 169.56399; 12826002.422897
2158.07; 166.03259; 12826171.436913
2159.09; 162.89823; 12826337.260286
2160.10; 160.53201; 12826500.67494
2161.12; 159.1211; 12826662.653352
2162.14; 158.65281; 12826824.155069
2163.16; 158.95138; 12826985.960715
2164.18; 159.74995; 12827148.579274
2165.19; 160.77247; 12827312.238707
2166.21; 161.80155; 12827476.945699
2167.23; 162.71735; 12827642.584941
2168.25; 163.50377; 12827809.024722
2169.27; 164.22823; 12827976.201973
2170.28; 165.00637; 12828144.171339
2171.30; 165.96257; 12828313.114073
2172.32; 167.19394; 12828483.310289
2173.34; 168.74172; 12828655.082078
2174.36; 170.57203; 12828828.717043
2175.37; 172.56848; 12829004.384304
2176.39; 174.54015; 12829182.058645
2177.41; 176.24803; 12829361.47153
2178.43; 177.44919; 12829542.107151
2179.45; 177.95204; 12829723.254647
2180.46; 177.66887; 12829904.113887
2181.48; 176.64928; 12830083.935233
2182.50; 175.08022; 12830262.159343
2183.52; 173.24755; 12830438.51787
2184.54; 171.46665; 12830613.063518
2185.55; 170.00096; 12830786.117165
2186.57; 168.99304; 12830958.144787
2187.59; 168.42958; 12831129.598828
2188.61; 168.15111; 12831300.769399
2189.63; 167.90198; 12831471.686374
2190.64; 167.40345; 12831642.095864
2191.66; 166.42626; 12831811.510619
2192.68; 164.84207; 12831979.312735
2193.70; 162.6426; 12832144.875879
2194.71; 159.92814; 12832307.675821
2195.73; 156.87673; 12832467.369567
2196.75; 153.70865; 12832623.838345
2197.77; 150.65719; 12832777.200859
2198.79; 147.949; 12832927.806553
2199.80; 145.78978; 12833076.214255
2200.82; 144.34778; 12833223.15407
2201.84; 143.7307; 12833369.46572
2202.86; 143.95811; 12833516.008865
2203.88; 144.93912; 12833663.550632
2204.89; 146.46766; 12833812.648387
2205.91; 148.2448; 12833963.555191
2206.93; 149.92835; 12834116.175779
2207.95; 151.19928; 12834270.09012
2208.97; 151.82651; 12834424.642958
2209.98; 151.71061; 12834579.077807
2211.00; 150.89328; 12834732.680654
2212.02; 149.53137; 12834884.897135
2213.04; 147.84568; 12835035.397662
2214.06; 146.0626; 12835184.083086
2215.07; 144.36626; 12835331.04171
2216.09; 142.87247; 12835476.479724
2217.11; 141.62528; 12835620.648148
2218.13; 140.60858; 12835763.781618
2219.15; 139.76171; 12835906.053006
2220.16; 138.99058; 12836047.539416
2221.18; 138.17306; 12836188.193631
2222.20; 137.16403; 12836327.820693
2223.22; 135.80854; 12836466.067926
2224.24; 133.96873; 12836602.442309
2225.25; 131.56201; 12836736.366755
2226.27; 128.59966; 12836867.275655
2227.29; 125.2096; 12836994.733623
2228.31; 121.62926; 12837118.546957
2229.33; 118.1633; 12837238.8321
2230.34; 115.11432; 12837356.01351
2231.36; 112.70609; 12837470.743444
2232.38; 111.0245; 12837583.761589
2233.40; 109.99704; 12837695.73383
2234.42; 109.41942; 12837807.11808
2235.43; 109.02151; 12837918.097274
2236.45; 108.55095; 12838028.597456
2237.47; 107.84646; 12838138.380501
2238.49; 106.87697; 12838247.176647
2239.51; 105.73528; 12838354.810603
2240.52; 104.5916; 12838461.280343
2241.54; 103.6261; 12838566.767243
2242.56; 102.96592; 12838671.582105
2243.58; 102.64862; 12838776.073966
2244.59; 102.62254; 12838880.539284
2245.61; 102.78008; 12838985.164968
2246.63; 103.0077; 12839090.02236
2247.65; 103.23184; 12839195.107917
2248.67; 103.4431; 12839300.408532
2249.68; 103.69133; 12839405.961827
2250.70; 104.05611; 12839511.886458
2251.72; 104.60674; 12839618.371603
2252.74; 105.36843; 12839725.632118
2253.76; 106.30803; 12839833.849106
2254.77; 107.34343; 12839943.120082
2255.79; 108.37142; 12840053.437513
2256.81; 109.30203; 12840164.70226
2257.83; 110.08576; 12840276.764812
2258.85; 110.72459; 12840389.477669
2259.86; 111.26431; 12840502.739933
2260.88; 111.77318; 12840616.52021
2261.90; 112.31623; 12840730.853288
2262.92; 112.93428; 12840845.815516
2263.94; 113.63372; 12840961.489745
2264.95; 114.38763; 12841077.931419
2265.97; 115.14489; 12841195.143945
2266.99; 115.84206; 12841313.066161
2268.01; 116.41404; 12841431.570629
2269.03; 116.80194; 12841550.469965
2270.04; 116.95941; 12841669.529593
2271.06; 116.85931; 12841788.487329
2272.08; 116.50165; 12841907.080983
2273.10; 115.92086; 12842025.083418
2274.12; 115.18873; 12842142.34057
2275.13; 114.40868; 12842258.803669
2276.15; 113.69957; 12842374.544922
2277.17; 113.17102; 12842489.748138
2278.19; 112.89688; 12842604.672289
2279.21; 112.8954; 12842719.594931
2280.22; 113.12396; 12842834.750242
2281.24; 113.49172; 12842950.279917
2282.26; 113.88712; 12843066.212089
2283.28; 114.21156; 12843182.474526
2284.30; 114.40748; 12843298.9364
2285.31; 114.47054; 12843415.462468
2286.33; 114.44116; 12843531.958632
2287.35; 114.37838; 12843648.390886
2288.37; 114.32605; 12843764.769873
2289.38; 114.28517; 12843881.10724
2290.40; 114.20443; 12843997.36242
2291.42; 113.99515; 12844113.404559
2292.44; 113.56722; 12844229.011085
2293.46; 112.87443; 12844343.912388
2294.47; 111.95224; 12844457.874936
2295.49; 110.93196; 12844570.798888
2296.51; 110.02245; 12844682.796989
2297.53; 109.46078; 12844794.22334
2298.55; 109.44535; 12844905.63398
2299.56; 110.07197; 12845017.682496
2300.58; 111.29524; 12845130.976245
2301.60; 112.93042; 12845245.934541
2302.62; 114.69901; 12845362.693186
2303.64; 116.30629; 12845481.087968
2304.65; 117.52766; 12845600.726058
2305.67; 118.27608; 12845721.126005
2306.69; 118.62738; 12845841.883561
2307.71; 118.79361; 12845962.810329
2308.73; 119.05114; 12846083.999249
2309.74; 119.64607; 12846205.793788
2310.76; 120.70767; 12846328.668989
2311.78; 122.1986; 12846453.061889
2312.80; 123.91907; 12846579.206157
2313.82; 125.56405; 12846707.024943
2314.83; 126.81496; 12846836.117101
2315.85; 127.43613; 12846965.841585
2316.87; 127.34513; 12847095.47343
2317.89; 126.63562; 12847224.383026
2318.91; 125.54799; 12847352.185461
2319.92; 124.40023; 12847478.819527
2320.94; 123.50383; 12847604.5411
2321.96; 123.09211; 12847729.84356
2322.98; 123.28143; 12847855.33874
2324.00; 124.07216; 12847981.638841
2325.01; 125.38152; 12848109.271817
2326.03; 127.09041; 12848238.644365
2327.05; 129.08381; 12848370.046116
2328.07; 131.27072; 12848503.674049
2329.09; 133.58016; 12848639.652883
2330.10; 135.94134; 12848778.035297
2331.12; 138.2628; 12848918.780863
2332.14; 140.42483; 12849061.727277
2333.16; 142.29275; 12849206.57516
2334.18; 143.74829; 12849352.904716
2335.19; 144.72657; 12849500.230123
2336.21; 145.24248; 12849648.080703
2337.23; 145.39253; 12849796.084022
2338.25; 145.32756; 12849944.021209
2339.26; 145.20334; 12850091.831941
2340.28; 145.12579; 12850239.563736
2341.30; 145.11208; 12850387.281574
2342.32; 145.08457; 12850534.97141
2343.34; 144.90434; 12850682.477777
2344.35; 144.43633; 12850829.507728
2345.37; 143.62564; 12850975.712428
2346.39; 142.55766; 12851120.829975
2347.41; 141.47735; 12851264.847812
2348.43; 140.75426; 12851408.129576
2349.44; 140.79745; 12851551.455309
2350.46; 141.9418; 12851695.945937
2351.48; 144.33919; 12851842.877007
2352.50; 147.88973; 12851993.422367
2353.52; 152.23789; 12852148.39397
2354.53; 156.83975; 12852308.05007
2355.55; 161.08477; 12852472.02741
2356.57; 164.43787; 12852639.418062
2357.59; 166.56003; 12852808.968983
2358.61; 167.37175; 12852979.346205
2359.62; 167.0422; 12853149.387959
2360.64; 165.91099; 12853318.278191
2361.66; 164.37156; 12853485.601349
2362.68; 162.75676; 12853651.280708
2363.70; 161.2646; 12853815.441116
2364.71; 159.94593; 12853978.259173
2365.73; 158.7521; 12854139.861956
2366.75; 157.61848; 12854300.310765
2367.77; 156.54712; 12854459.668977
2368.79; 155.65344; 12854618.117463
2369.80; 155.15716; 12854776.06076
2370.82; 155.31992; 12854934.169739
2371.84; 156.35296; 12855093.330304
2372.86; 158.32946; 12855254.502858
2373.88; 161.13389; 12855418.530205
2374.89; 164.46619; 12855585.949686
2375.91; 167.89819; 12855756.862802
2376.93; 170.962; 12855930.894736
2377.95; 173.24087; 12856107.246468
2378.97; 174.43687; 12856284.815674
2379.98; 174.40161; 12856462.348984
2381.00; 173.13267; 12856638.590573
2382.02; 170.74983; 12856812.406528
2383.04; 167.4683; 12856982.882036
2384.05; 163.58039; 12857149.399816
2385.07; 159.44517; 12857311.708118
2386.09; 155.47616; 12857469.976138
2387.11; 152.11327; 12857624.820884
2388.13; 149.77127; 12857777.281572
2389.14; 148.76934; 12857928.722344
2390.16; 149.25983; 12858080.662408
2391.18; 151.18127; 12858234.558417
2392.20; 154.25801; 12858391.58642
2393.22; 158.05475; 12858552.479337
2394.23; 162.07528; 12858717.464981
2395.25; 165.87753; 12858886.321147
2396.27; 169.16902; 12859058.527909
2397.29; 171.85253; 12859233.466373
2398.31; 174.00854; 12859410.599562
2399.32; 175.82363; 12859589.580435
2400.34; 177.49304; 12859770.260691
2401.36; 179.1339; 12859952.611272
2402.38; 180.74024; 12860136.597038
2403.40; 182.19353; 12860322.062193
2404.41; 183.32089; 12860508.674948
2405.43; 183.97488; 12860695.953436
2406.45; 184.10175; 12860883.361073
2407.47; 183.77068; 12861070.431695
2408.49; 183.15297; 12861256.873515
2409.50; 182.45993; 12861442.609849
2410.52; 181.8639; 12861627.739455
2411.54; 181.43245; 12861812.429861
2412.56; 181.09962; 12861996.781458
2413.58; 180.68352; 12862180.709483
2414.59; 179.94212; 12862363.882801
2415.61; 178.64618; 12862545.736908
2416.63; 176.64387; 12862725.55274
2417.65; 173.89717; 12862902.572552
2418.67; 170.48225; 12863076.11613
2419.68; 166.55938; 12863245.666394
2420.70; 162.32779; 12863410.909081
2421.72; 157.98351; 12863571.729481
2422.74; 153.69338; 12863728.182707
2423.76; 149.5894; 12863880.458261
2424.77; 145.77849; 12864028.854475
2425.79; 142.35665; 12864173.767404
2426.81; 139.41675; 12864315.687643
2427.83; 137.04371; 12864455.192228
2428.85; 135.29803; 12864592.919779
2429.86; 134.19474; 12864729.52423
2430.88; 133.68754; 12864865.612377
2431.90; 133.66605; 12865001.678644
2432.92; 133.96924; 12865138.053552
2433.93; 134.41228; 12865274.879458
2434.95; 134.81935; 12865412.119743
2435.97; 135.05395; 12865549.598833
2436.99; 135.03966; 12865687.063379
2438.01; 134.76825; 12865824.251646
2439.02; 134.29554; 12865960.958707
2440.04; 133.72805; 12866097.08809
2441.06; 133.20413; 12866232.684148
2442.08; 132.87189; 12866367.942001
2443.10; 132.86543; 12866503.193281
2444.11; 133.28015; 12866638.866719
2445.13; 134.1488; 12866775.424405
2446.15; 135.42194; 12866913.278091
2447.17; 136.95785; 12867052.695275
2448.19; 138.52771; 12867193.710506
2449.20; 139.83961; 12867336.061191
2450.22; 140.58142; 12867479.167005
2451.24; 140.47704; 12867622.16657
2452.26; 139.346; 12867764.014783
2453.28; 137.15342; 12867903.631046
2454.29; 134.03788; 12868040.075826
2455.31; 130.30821; 12868172.723959
2456.33; 126.40666; 12868301.400483
2457.35; 122.84363; 12868426.449994
2458.37; 120.11574; 12868548.722629
2459.38; 118.62389; 12868669.47663
2460.40; 118.60848; 12868790.214943
2461.42; 120.11555; 12868912.48739
2462.44; 123.00068; 12869037.696779
2463.46; 126.96821; 12869166.944933
2464.47; 131.63464; 12869300.943319
2465.49; 136.59942; 12869439.995636
2466.51; 141.5047; 12869584.041313
2467.53; 146.07059; 12869732.734874
2468.55; 150.10068; 12869885.530891
2469.56; 153.46296; 12870041.749562
2470.58; 156.05969; 12870200.611596
2471.60; 157.80306; 12870361.2483
2472.62; 158.61011; 12870522.706544
2473.64; 158.42194; 12870683.973243
2474.65; 157.24073; 12870844.037523
2475.67; 155.16903; 12871001.992901
2476.69; 152.43245; 12871157.162555
2477.71; 149.37104; 12871309.215824
2478.72; 146.39536; 12871458.239978
2479.74; 143.91623; 12871604.740487
2480.76; 142.26768; 12871749.562849
2481.78; 141.6461; 12871893.752463
2482.80; 142.08348; 12872038.387312
2483.81; 143.46118; 12872184.424604
2484.83; 145.55641; 12872332.594751
2485.85; 148.10338; 12872483.357602
2486.87; 150.84779; 12872636.914146
2487.89; 153.57875; 12872793.250685
2488.90; 156.1333; 12872952.18765
2489.92; 158.38117; 12873113.412849
2490.94; 160.20501; 12873276.494633
2491.96; 161.49207; 12873440.886591
2492.98; 162.14601; 12873605.944235
2493.99; 162.11628; 12873770.971613
2495.01; 161.43228; 12873935.302712
2496.03; 160.22477; 12874098.404618
2497.05; 158.71992; 12874259.97465
2498.07; 157.20117; 12874419.998662
2499.08; 155.9463; 12874578.745271
2500.10; 155.15717; 12874736.688573
2501.12; 154.90347; 12874894.373621
2502.14; 155.09825; 12875052.256942
2503.16; 155.51317; 12875210.562637
2504.17; 155.82991; 12875369.190761
2505.19; 155.71382; 12875527.70071
2506.21; 154.89099; 12875685.37305
2507.23; 153.21023; 12875841.334454
2508.25; 150.67673; 12875994.716866
2509.26; 147.45141; 12876144.816034
2510.28; 143.81781; 12876291.21636
2511.30; 140.12442; 12876433.856977
2512.32; 136.71437; 12876573.026307
2513.34; 133.85677; 12876709.286719
2514.35; 131.69394; 12876843.345463
2515.37; 130.21648; 12876975.900217
2516.39; 129.27315; 12877107.494706
2517.41; 128.61509; 12877238.419315
2518.43; 127.96502; 12877368.682185
2519.44; 127.09456; 12877498.058962
2520.46; 125.88869; 12877626.208212
2521.48; 124.37888; 12877752.820548
2522.50; 122.73447; 12877877.758942
2523.52; 121.21421; 12878001.149778
2524.53; 120.09239; 12878123.398651
2525.55; 119.58153; 12878245.127486
2526.57; 119.77425; 12878367.052504
2527.59; 120.61979; 12878489.838249
2528.60; 121.93837; 12878613.966252
2529.62; 123.46467; 12878739.647961
2530.64; 124.90373; 12878866.794564
2531.66; 125.982; 12878995.038799
2532.68; 126.48215; 12879123.792167
2533.69; 126.25929; 12879252.318671
2534.71; 125.24431; 12879379.811976
2535.73; 123.44319; 12879505.471815
2536.75; 120.93822; 12879628.581701
2537.77; 117.8909; 12879748.589555
2538.78; 114.5396; 12879865.18593
2539.80; 111.18269; 12879978.365115
2540.82; 108.14165; 12880088.448646
2541.84; 105.7067; 12880196.053506
2542.86; 104.07728; 12880301.999686
2543.87; 103.31526; 12880407.170167
2544.89; 103.32821; 12880512.353824
2545.91; 103.89144; 12880618.110826
2546.93; 104.70537; 12880724.696374
2547.95; 105.47217; 12880832.062489
2548.96; 105.96923; 12880939.934589
2549.98; 106.098; 12881047.93777
2551.00; 105.89536; 12881155.734682
2552.02; 105.50727; 12881263.136528
2553.04; 105.13572; 12881370.160157
2554.05; 104.97702; 12881477.02223
2555.07; 105.16865; 12881584.079383
2556.09; 105.75698; 12881691.735422
2557.11; 106.68926; 12881800.340486
2558.13; 107.82711; 12881910.103833
2559.14; 108.97418; 12882021.034848
2560.16; 109.91108; 12882132.91959
2561.18; 110.43213; 12882245.334737
2562.20; 110.38026; 12882357.697077
2563.22; 109.67671; 12882469.34323
2564.23; 108.34107; 12882579.629762
2565.25; 106.49627; 12882688.038374
2566.27; 104.35416; 12882794.266408
2567.29; 102.18114; 12882898.282401
2568.31; 100.24939; 12883000.331955
2569.32; 98.784781; 12883100.8906
2570.34; 97.925402; 12883200.574434
2571.36; 97.702504; 12883300.031367
2572.38; 98.048797; 12883399.840811
2573.39; 98.829944; 12883500.445429
2574.41; 99.887288; 12883602.126378
2575.43; 101.07663; 12883705.018023
2576.45; 102.29068; 12883809.145525
2577.47; 103.46056; 12883914.463911
2578.48; 104.54057; 12884020.881705
2579.50; 105.48762; 12884128.263546
2580.52; 106.24742; 12884236.418829
2581.54; 106.75582; 12884345.091648
2582.56; 106.95515; 12884453.967377
2583.57; 106.81791; 12884562.703399
2584.59; 106.36608; 12884670.979477
2585.61; 105.6757; 12884778.552781
2586.63; 104.86271; 12884885.298499
2587.65; 104.0541; 12884991.221082
2588.66; 103.35475; 12885096.431754
2589.68; 102.82211; 12885201.100227
2590.70; 102.45732; 12885305.397359
2591.72; 102.21451; 12885409.447318
2592.74; 102.02303; 12885513.302358
2593.75; 101.81291; 12885616.94351
2594.77; 101.53415; 12885720.300892
2595.79; 101.1645; 12885823.281987
2596.81; 100.70644; 12885925.796801
2597.83; 100.17845; 12886027.774142
2598.84; 99.607148; 12886129.169921
2599.86; 99.02463; 12886229.97272
2600.88; 98.470767; 12886330.211712
2601.90; 97.996147; 12886429.967561
2602.92; 97.659765; 12886529.380988
2603.93; 97.517564; 12886628.64966
2604.95; 97.602579; 12886728.004874
2605.97; 97.902705; 12886827.665603
2606.99; 98.345308; 12886927.776883
2608.01; 98.797438; 12887028.348412
2609.02; 99.086035; 12887129.21372
2610.04; 99.035781; 12887230.027871
2611.06; 98.515604; 12887330.312505
2612.08; 97.480756; 12887429.543709
2613.10; 95.99742; 12887527.264939
2614.11; 94.240974; 12887623.198184
2615.13; 92.46608; 12887717.324664
2616.15; 90.954509; 12887809.912429
2617.17; 89.952825; 12887901.480523
2618.19; 89.61513; 12887992.704859
2619.20; 89.965167; 12888084.285517
2620.22; 90.887682; 12888176.805255
2621.24; 92.151883; 12888270.611895
2622.26; 93.461994; 12888365.752172
2623.27; 94.522978; 12888461.972485
2624.29; 95.105297; 12888558.785573
2625.31; 95.092411; 12888655.585544
2626.33; 94.498849; 12888751.781294
2627.35; 93.454459; 12888846.913901
2628.36; 92.159834; 12888940.728635
2629.38; 90.826294; 12889033.185883
2630.40; 89.618391; 12889124.413538
2631.42; 88.616084; 12889214.620887
2632.44; 87.807315; 12889304.004945
2633.45; 87.111732; 12889392.680929
2634.47; 86.425964; 12889480.658831
2635.49; 85.67376; 12889567.871021
2636.51; 84.843067; 12889654.237603
2637.53; 83.997128; 12889739.743055
2638.54; 83.2562; 12889824.494274
2639.56; 82.756952; 12889908.73728
2640.58; 82.604228; 12889992.824819
2641.60; 82.832004; 12890077.144225
2642.62; 83.386471; 12890162.028055
2643.63; 84.136039; 12890247.674912
2644.65; 84.903953; 12890334.103472
2645.67; 85.512373; 12890421.151378
2646.69; 85.824475; 12890508.51699
2647.71; 85.773441; 12890595.830651
2648.72; 85.372693; 12890682.736368
2649.74; 84.707728; 12890768.96518
2650.76; 83.91436; 12890854.386377
2651.78; 83.149909; 12890939.029396
2652.80; 82.563293; 12891023.075265
2653.81; 82.2683; 12891106.820845
2654.83; 82.322973; 12891190.622079
2655.85; 82.717573; 12891274.824999
2656.87; 83.373701; 12891359.695829
2657.89; 84.15671; 12891445.363729
2658.90; 84.901625; 12891531.789919
2659.92; 85.449173; 12891618.77349
2660.94; 85.684429; 12891705.996541
2661.96; 85.567612; 12891793.100678
2662.98; 85.146863; 12891879.77651
2663.99; 84.546907; 12891965.841613
2665.01; 83.934757; 12892051.283573
2666.03; 83.471478; 12892136.253936
2667.05; 83.264682; 12892221.013789
2668.06; 83.337235; 12892305.847498
2669.08; 83.623039; 12892390.972144
2670.10; 83.991931; 12892476.472305
2671.12; 84.295846; 12892562.281838
2672.14; 84.420996; 12892648.218769
2673.15; 84.3286; 12892734.061645
2674.17; 84.070578; 12892819.641865
2675.19; 83.775099; 12892904.9213
2676.21; 83.606973; 12892990.029592
2677.23; 83.715995; 12893075.248862
2678.24; 84.189819; 12893160.950465
2679.26; 85.025822; 12893247.503083
2680.28; 86.129664; 12893335.179364
2681.30; 87.339517; 12893424.087223
2682.32; 88.467122; 12893514.142935
2683.33; 89.342454; 12893605.089698
2684.35; 89.848891; 12893696.551991
2685.37; 89.939969; 12893788.106998
2686.39; 89.635305; 12893879.351871
2687.41; 88.999867; 12893969.949895
2688.42; 88.115387; 12894059.647557
2689.44; 87.054128; 12894148.264902
2690.46; 85.863324; 12894235.67006
2691.48; 84.564241; 12894321.752809
2692.50; 83.16461; 12894406.410793
2693.51; 81.67864; 12894489.556125
2694.53; 80.146493; 12894571.141796
2695.55; 78.645313; 12894651.199332
2696.57; 77.286747; 12894729.873905
2697.59; 76.200181; 12894807.442401
2698.60; 75.505518; 12894884.30376
2699.62; 75.282744; 12894960.938346
2700.64; 75.546927; 12895037.841858
2701.66; 76.236144; 12895115.446962
2702.68; 77.216655; 12895194.050185
2703.69; 78.305161; 12895273.76146
2704.71; 79.303488; 12895354.488988
2705.73; 80.037731; 12895435.963945
2706.75; 80.392491; 12895517.800032
2707.77; 80.331895; 12895599.574435
2708.78; 79.902248; 12895680.911475
2709.80; 79.215763; 12895761.549703
2710.82; 78.41973; 12895841.377605
2711.84; 77.659408; 12895920.431531
2712.86; 77.044786; 12895998.859798
2713.87; 76.630409; 12896076.866247
2714.89; 76.413764; 12896154.652161
2715.91; 76.352108; 12896232.375313
2716.93; 76.391746; 12896310.138814
2717.94; 76.499418; 12896388.01192
2718.96; 76.684385; 12896466.073315
2719.98; 77.002578; 12896544.458616
2721.00; 77.540251; 12896623.391246
2722.02; 78.382079; 12896703.18082
2723.03; 79.574824; 12896784.184557
2724.05; 81.100283; 12896866.741146
2725.07; 82.868842; 12896951.098051
2726.09; 84.738097; 12897037.357778
2727.11; 86.551983; 12897125.463962
2728.12; 88.187791; 12897215.235328
2729.14; 89.594606; 12897306.438771
2730.16; 90.808621; 12897398.878029
2731.18; 91.938178; 12897492.467127
2732.20; 93.12178; 12897587.261081
2733.21; 94.472061; 12897683.429562
2734.23; 96.024287; 12897781.178142
2735.25; 97.707378; 12897880.640037
2736.27; 99.348741; 12897981.772768
2737.29; 100.71369; 12898084.294957
2738.30; 101.56935; 12898187.688177
2739.32; 101.75528; 12898291.270664
2740.34; 101.24067; 12898394.329296
2741.36; 100.15176; 12898496.279467
2742.38; 98.761158; 12898596.814064
2743.39; 97.440643; 12898696.004434
2744.41; 96.588357; 12898794.327214
2745.43; 96.546934; 12898892.607826
2746.45; 97.530949; 12898991.890123
2747.47; 99.579425; 12899093.257681
2748.48; 102.54343; 12899197.642465
2749.50; 106.11122; 12899305.659106
2750.52; 109.86565; 12899417.497599
2751.54; 113.36196; 12899532.895187
2752.56; 116.20984; 12899651.191786
2753.57; 118.14274; 12899771.455999
2754.59; 119.06016; 12899892.654103
2755.61; 119.03416; 12900013.825743
2756.63; 118.27992; 12900134.2296
2757.65; 117.09809; 12900253.430403
2758.66; 115.80363; 12900371.313501
2759.68; 114.65875; 12900488.031163
2760.70; 113.826; 12900603.901118
2761.72; 113.35175; 12900719.288305
2762.73; 113.18181; 12900834.502499
2763.75; 113.20212; 12900949.737369
2764.77; 113.291; 12901065.062713
2765.79; 113.3671; 12901180.465529
2766.81; 113.41956; 12901295.921744
2767.82; 113.51275; 12901411.47283
2768.84; 113.76614; 12901527.281849
2769.86; 114.31651; 12901643.651121
2770.88; 115.27489; 12901760.995984
2771.90; 116.69084; 12901879.782228
2772.91; 118.53421; 12902000.44494
2773.93; 120.69898; 12902123.311289
2774.95; 123.02756; 12902248.54804
2775.97; 125.34849; 12902376.147399
2776.99; 127.51688; 12902505.954077
2778.00; 129.44668; 12902637.72521
2779.02; 131.12582; 12902771.205633
2780.04; 132.60953; 12902906.196414
2781.06; 133.99309; 12903042.595602
2782.08; 135.3706; 12903180.39703
2783.09; 136.79099; 12903319.644355
2784.11; 138.22443; 12903460.35086
2785.13; 139.55072; 12903602.407475
2786.15; 140.57659; 12903745.508382
2787.17; 141.08102; 12903889.122772
2788.18; 140.87914; 12904032.531655
2789.20; 139.88813; 12904174.931737
2790.22; 138.17529; 12904315.58822
2791.24; 135.97096; 12904454.000787
2792.26; 133.63742; 12904590.037915
2793.27; 131.59706; 12904723.998038
2794.29; 130.23585; 12904856.572517
2795.31; 129.80761; 12904988.711063
2796.33; 130.36614; 12905121.418169
2797.35; 131.74653; 12905255.53045
2798.36; 133.60305; 12905391.532588
2799.38; 135.49482; 12905529.460463
2800.40; 136.99587; 12905668.916351
2801.42; 137.79879; 12905809.189573
2802.44; 137.78292; 12905949.446638
2803.45; 137.02936; 12906088.936613
2804.47; 135.78091; 12906227.155716
2805.49; 134.36156; 12906363.929986
2806.51; 133.08112; 12906499.400827
2807.52; 132.15287; 12906633.926743
2808.54; 131.64597; 12906767.936658
2809.56; 131.48218; 12906901.779845
2810.58; 131.47238; 12907035.613059
2811.60; 131.37795; 12907169.350145
2812.61; 130.97712; 12907302.679199
2813.63; 130.1183; 12907435.134014
2814.65; 128.74898; 12907566.194922
2815.67; 126.91725; 12907695.391205
2816.69; 124.75047; 12907822.381801
2817.70; 122.42011; 12907947.000196
2818.72; 120.10277; 12908069.259632
2819.74; 117.94605; 12908189.323626
2820.76; 116.04543; 12908307.45287
2821.78; 114.43506; 12908423.942826
2822.79; 113.09325; 12908539.066876
2823.81; 111.96068; 12908653.038019
2824.83; 110.9673; 12908765.997938
2825.85; 110.06165; 12908878.035952
2826.87; 109.23543; 12908989.232902
2827.88; 108.53603; 12909099.717893
2828.90; 108.06284; 12909209.721199
2829.92; 107.94673; 12909319.606309
2830.94; 108.31731; 12909429.868656
2831.96; 109.26642; 12909541.097162
2832.97; 110.81771; 12909653.904806
2833.99; 112.91075; 12909768.843076
2835.01; 115.40423; 12909886.3196
2836.03; 118.09729; 12910006.537544
2837.05; 120.76372; 12910129.469802
2838.06; 123.19092; 12910254.872843
2839.08; 125.21531; 12910382.336621
2840.10; 126.74777; 12910511.360385
2841.12; 127.7855; 12910641.440512
2842.14; 128.40932; 12910772.155654
2843.15; 128.76786; 12910903.235782
2844.17; 129.05139; 12911034.604528
2845.19; 129.45885; 12911166.388049
2846.21; 130.16318; 12911298.888547
2847.23; 131.28037; 12911432.526298
2848.24; 132.84819; 12911567.760019
2849.26; 134.81936; 12911705.00031
2850.28; 137.07145; 12911844.533134
2851.30; 139.43168; 12911986.468573
2852.32; 141.71106; 12912130.724321
2853.33; 143.73939; 12912277.044814
2854.35; 145.39247; 12912425.04807
2855.37; 146.60548; 12912574.28612
2856.39; 147.3709; 12912724.303336
2857.40; 147.72446; 12912874.680463
2858.42; 147.72607; 12913025.059233
2859.44; 147.44335; 12913175.150201
2860.46; 146.94318; 12913324.732013
2861.48; 146.29257; 12913473.651536
2862.49; 145.56568; 12913621.831118
2863.51; 144.85099; 12913769.283173
2864.53; 144.25259; 12913916.126088
2865.55; 143.88193; 12914062.591685
2866.57; 143.8402; 12914209.014798
2867.58; 144.19559; 12914355.799688
2868.60; 144.96192; 12914503.364669
2869.62; 146.08516; 12914652.073059
2870.64; 147.44267; 12914802.163331
2871.66; 148.85662; 12914953.692944
2872.67; 150.11997; 12915106.50859
2873.69; 151.03077; 12915260.251393
2874.71; 151.42927; 12915414.399859
2875.73; 151.23181; 12915568.347311
2876.75; 150.45554; 12915721.504562
2877.76; 149.22909; 12915873.413336
2878.78; 147.78479; 12916023.851871
2879.80; 146.43093; 12916172.912241
2880.82; 145.50528; 12916321.030335
2881.84; 145.31543; 12916468.955167
2882.85; 146.07613; 12916617.654368
2883.87; 147.85662; 12916768.166025
2884.89; 150.55129; 12916921.420745
2885.91; 153.88409; 12917078.068107
2886.93; 157.44958; 12917238.344982
2887.94; 160.78521; 12917402.017389
2888.96; 163.46029; 12917568.412906
2889.98; 165.16173; 12917736.540418
2891.00; 165.75628; 12917905.273154
2892.02; 165.31384; 12918073.555511
2893.03; 164.08647; 12918240.588452
2894.05; 162.44872; 12918405.954241
2895.07; 160.81512; 12918569.657098
2896.09; 159.5554; 12918732.077605
2897.11; 158.92769; 12918893.859139
2898.12; 159.04364; 12919055.758702
2899.14; 159.86949; 12919218.498942
2900.16; 161.25795; 12919382.65258
2901.18; 162.99834; 12919548.577853
2902.19; 164.86998; 12919716.408381
2903.21; 166.68634; 12919886.087886
2904.23; 168.32216; 12920057.432578
2905.25; 169.72235; 12920230.202605
2906.27; 170.89614; 12920404.167503
2907.28; 171.90189; 12920579.156212
2908.30; 172.82788; 12920755.087538
2909.32; 173.77235; 12920931.98029
2910.34; 174.82427; 12921109.943852
2911.36; 176.04586; 12921289.150943
2912.37; 177.45865; 12921469.796187
2913.39; 179.03647; 12921652.047591
2914.41; 180.70966; 12921836.002226
2915.43; 182.38301; 12922021.660263
2916.45; 183.96685; 12922208.930581
2917.46; 185.4149; 12922397.674953
2918.48; 186.75821; 12922587.786752
2919.50; 188.12236; 12922779.2872
2920.52; 189.71773; 12922972.411666
2921.54; 191.79924; 12923167.655018
2922.55; 194.60172; 12923365.751167
2923.57; 198.26589; 12923567.577287
2924.59; 202.77543; 12923773.993923
2925.61; 207.92464; 12923985.652229
2926.63; 213.32944; 12924202.812391
2927.64; 218.48296; 12924425.218613
2928.66; 222.8447; 12924652.064905
2929.68; 225.94331; 12924882.06544
2930.70; 227.46925; 12925113.619322
2931.72; 227.33718; 12925345.038758
2932.73; 225.70525; 12925574.796961
2933.75; 222.94939; 12925801.749821
2934.77; 219.5994; 12926025.292534
2935.79; 216.25025; 12926245.425958
2936.81; 213.46483; 12926462.723944
2937.82; 211.68421; 12926678.209334
2938.84; 211.16004; 12926893.161144
2939.86; 211.92077; 12927108.887344
2940.88; 213.77925; 12927326.505394
2941.90; 216.38294; 12927546.773894
2942.91; 219.29928; 12927770.011093
2943.93; 222.11866; 12927996.118305
2944.95; 224.5501; 12928224.700615
2945.97; 226.48204; 12928455.249561
2946.99; 227.98821; 12928687.331723
2948.00; 229.27359; 12928920.722345
2949.02; 230.57627; 12929155.439043
2950.04; 232.0587; 12929391.664784
2951.06; 233.72936; 12929629.591185
2952.07; 235.42836; 12929869.247098
2953.09; 236.88794; 12930110.388798
2954.11; 237.84964; 12930352.509466
2955.13; 238.19469; 12930594.981385
2956.15; 238.03452; 12930837.290253
2957.16; 237.71989; 12931079.278842
2958.18; 237.7577; 12931321.30592
2959.20; 238.66183; 12931564.253369
2960.22; 240.79423; 12931809.371502
2961.24; 244.25992; 12932058.017564
2962.25; 248.90097; 12932311.388009
2963.27; 254.39401; 12932570.350129
2964.29; 260.41151; 12932835.437806
2965.31; 266.77569; 12933107.003942
2966.33; 273.53217; 12933385.447886
2967.34; 280.90043; 12933671.392398
2968.36; 289.10983; 12933965.693727
2969.38; 298.18318; 12934269.231335
2970.40; 307.76134; 12934582.519101
2971.42; 317.05784; 12934905.270299
2972.43; 324.98978; 12935236.095872
2973.45; 330.46592; 12935572.495915
2974.47; 332.74805; 12935911.219077
2975.49; 331.76458; 12936248.941103
2976.51; 328.26005; 12936583.095671
2977.52; 323.71328; 12936912.62182
2978.54; 320.03138; 12937238.399952
2979.56; 319.10255; 12937563.23258
2980.58; 322.33839; 12937891.359156
2981.60; 330.34031; 12938227.631341
2982.61; 342.78342; 12938576.57007
2983.63; 358.54012; 12938941.548437
2984.65; 375.99092; 12939324.290969
2985.67; 393.41766; 12939724.773173
2986.69; 409.36151; 12940141.485529
2987.70; 422.85641; 12940571.935103
2988.72; 433.50414; 12941013.223607
2989.74; 441.41702; 12941462.567081
2990.76; 447.0941; 12941917.689584
2991.78; 451.30338; 12942377.096954
2992.79; 455.0148; 12942840.282388
2993.81; 459.38209; 12943307.913532
2994.83; 465.72789; 12943782.004428
2995.85; 475.4678; 12944266.010134
2996.86; 489.92619; 12944764.733853
2997.88; 510.04544; 12945283.938105
2998.90; 536.05176; 12945829.615664
2999.92; 567.18792; 12946406.988489
3000.94; 601.63356; 12947019.425491
3001.95; 636.69548; 12947667.554019
3002.97; 669.27274; 12948348.844785
3003.99; 696.50852; 12949057.860405
3005.01; 716.4663; 12949787.192185
3006.03; 728.63985; 12950528.916114
3007.04; 734.13983; 12951276.238783
3008.06; 735.48499; 12952024.930768
3009.08; 736.03768; 12952774.185364
3010.10; 739.22439; 12953526.683894
3011.12; 747.74087; 12954287.85183
3012.13; 762.94016; 12955064.491991
3013.15; 784.54515; 12955863.125099
3014.17; 810.73611; 12956688.419474
3015.19; 838.56934; 12957542.046876
3016.21; 864.61208; 12958422.184667
3017.22; 885.64694; 12959323.735038
3018.24; 899.30517; 12960239.18889
3019.26; 904.52037; 12961159.951596
3020.28; 901.73663; 12962077.880569
3021.30; 892.84546; 12962986.75872
3022.31; 880.86213; 12963883.438361
3023.33; 869.3851; 12964768.434882
3024.35; 861.91813; 12965645.830342
3025.37; 861.16975; 12966522.463985
3026.39; 868.47011; 12967406.529083
3027.40; 883.44485; 12968305.837814
3028.42; 904.04775; 12969226.11941
3029.44; 926.9773; 12970169.742302
3030.46; 948.40225; 12971135.174869
3031.48; 964.82813; 12972117.328275
3032.49; 973.88353; 12973108.699684
3033.51; 974.81614; 12974101.020451
3034.53; 968.56764; 12975086.980512
3035.55; 957.42086; 12976061.593634
3036.57; 944.34245; 12977022.893501
3037.58; 932.23347; 12977971.866941
3038.60; 923.31752; 12978911.764334
3039.62; 918.83483; 12979847.09854
3040.64; 919.09331; 12980782.695868
3041.66; 923.79891; 12981723.083296
3042.67; 932.49391; 12982672.321854
3043.69; 944.90761; 12983634.197026
3044.71; 961.07566; 12984612.530579
3045.73; 981.18903; 12985611.338672
3046.74; 1005.25; 12986634.639791
3047.76; 1032.6947; 12987685.878398
3048.78; 1062.1586; 12988767.110036
3049.80; 1091.5099; 12989878.219981
3050.82; 1118.173; 12991016.471807
3051.83; 1139.6593; 12992176.59579
3052.85; 1154.1428; 12993351.463389
3053.87; 1160.9042; 12994533.213785
3054.89; 1160.5127; 12995714.565633
3055.91; 1154.7044; 12996890.004927
3056.92; 1146.0121; 12998056.59578
3057.94; 1137.2694; 12999214.28693
3058.96; 1131.1342; 13000365.732698
3059.98; 1129.7426; 13001515.761918
3061.00; 1134.5443; 13002670.679093
3062.01; 1146.3015; 13003837.564519
3063.03; 1165.1886; 13005023.676249
3064.05; 1190.9201; 13006235.981509
3065.07; 1222.8503; 13007480.790379
3066.09; 1260.0291; 13008763.445593
3067.10; 1301.2239; 13010088.035369
3068.12; 1344.9379; 13011457.124125
3069.14; 1389.4463; 13012871.520485
3070.16; 1432.8641; 13014330.114306
3071.18; 1473.2486; 13015829.817826
3072.19; 1508.7408; 13017365.650821
3073.21; 1537.7578; 13018931.021869
3074.23; 1559.2496; 13020518.270644
3075.25; 1573.0124; 13022119.529359
3076.27; 1580.0106; 13023727.911958
3077.28; 1582.6077; 13025338.938255
3078.30; 1584.5738; 13026951.965984
3079.32; 1590.7546; 13028571.285542
3080.34; 1606.3628; 13030206.493585
3081.36; 1635.9814; 13031871.85202
3082.37; 1682.4999; 13033584.564292
3083.39; 1746.286; 13035362.20807
3084.41; 1824.8734; 13037219.850463
3085.43; 1913.3158; 13039167.523387
3086.45; 2005.1434; 13041208.672847
3087.46; 2093.6461; 13043339.914259
3088.48; 2173.0782; 13045552.014059
3089.50; 2239.4016; 13047831.62826
3090.52; 2290.365; 13050163.121006
3091.53; 2324.9885; 13052529.858976
3092.55; 2342.7909; 13054914.718968
3093.57; 2343.2311; 13057300.027104
3094.59; 2325.7751; 13059667.565822
3095.61; 2290.7406; 13061999.440874
3096.62; 2240.7089; 13064280.385871
3097.64; 2181.9635; 13066501.53054
3098.66; 2125.2553; 13068664.948704
3099.68; 2085.3025; 13070787.696699
3100.70; 2078.7818; 13072903.806827
3101.71; 2121.0669; 13075062.961353
3102.73; 2222.4498; 13077325.319321
3103.75; 2384.8638; 13079753.007793
3104.77; 2600.116; 13082399.813632
3105.79; 2850.302; 13085301.298047
3106.80; 3110.5163; 13088467.669428
3107.82; 3353.3369; 13091881.221671
3108.84; 3554.0552; 13095499.096473
3109.86; 3695.383; 13099260.836879
3110.88; 3770.4774; 13103099.02021
3111.89; 3783.5602; 13106950.521222
3112.91; 3748.0469; 13110765.871198
3113.93; 3682.772; 13114514.774195
3114.95; 3607.4004; 13118186.952113
3115.97; 3538.3082; 13121788.797141
3116.98; 3486.0351; 13125337.430447
3118.00; 3454.895; 13128854.364466
3119.02; 3444.6421; 13132360.861488
3120.04; 3453.4377; 13135876.31207
3121.06; 3480.9609; 13139419.780021
3122.07; 3530.4997; 13143013.67634
3123.09; 3609.2556; 13146687.742773
3124.11; 3726.7566; 13150481.42014
3125.13; 3891.97; 13154443.277646
3126.15; 4110.1696; 13158627.252986
3127.16; 4380.6678; 13163086.583751
3128.18; 4696.1504; 13167867.062197
3129.20; 5043.7089; 13173001.340249
3130.22; 5407.0189; 13178505.452195
3131.24; 5768.7564; 13184377.797286
3132.25; 6112.4292; 13190599.986413
3133.27; 6423.2897; 13197138.618184
3134.29; 6688.6544; 13203947.379778
3135.31; 6898.4368; 13210969.690794
3136.33; 7046.727; 13218142.954831
3137.34; 7134.721; 13225405.792962
3138.36; 7174.402; 13232709.024618
3139.38; 7191.4942; 13240029.655393
3140.40; 7225.8049; 13247385.213003
3141.41; 7327.4552; 13254844.246185
3142.43; 7548.6799; 13262528.476583
3143.45; 7932.5067; 13270603.426086
3144.47; 8501.0994; 13279257.178425
3145.49; 9247.2568; 13288670.486809
3146.50; 10132.097; 13298984.524634
3147.52; 11090.364; 13310274.036609
3148.54; 12042.523; 13322532.80523
3149.56; 12910.661; 13335675.301278
3150.58; 13633.903; 13349554.02639
3151.59; 14179.132; 13363987.770873
3152.61; 14544.261; 13378793.200491
3153.63; 14753.624; 13393811.752884
3154.65; 14847.476; 13408925.842736
3155.67; 14869.226; 13424062.073671
3156.68; 14854.401; 13439183.212596
3157.70; 14824.311; 13454273.721834
3158.72; 14785.513; 13469324.735703
3159.74; 14734.032; 13484323.344558
3160.76; 14661.897; 13499248.523159
3161.77; 14563.091; 13514073.12164
3162.79; 14436.815; 13528769.176126
3163.81; 14287.401; 13543313.133551
3164.83; 14121.775; 13557688.490722
3165.85; 13946.315; 13571885.237683
3166.86; 13765.002; 13585897.415636
3167.88; 13579.88; 13599721.147686
3168.90; 13393.559; 13613355.212676
3169.92; 13212.311; 13626804.774747
3170.94; 13047.898; 13640086.971599
3171.95; 12916.738; 13653235.653761
3172.97; 12836.264; 13666302.416948
3173.99; 12819.777; 13679352.396869
3175.01; 12872.102; 13692455.640807
3176.03; 12988.377; 13705677.247998
3177.04; 13157.25; 13719070.760843
3178.06; 13367.906; 13732678.712336
3179.08; 13618.471; 13746541.728308
3180.10; 13922.181; 13760713.907308
3181.12; 14307.889; 13775278.720402
3182.13; 14813.149; 13790357.86708
3183.15; 15470.73; 13806106.402856
3184.17; 16292.151; 13822691.10914
3185.19; 17253.611; 13840254.540364
3186.20; 18289.729; 13858872.695731
3187.22; 19298.615; 13878517.852789
3188.24; 20158.463; 13899038.298235
3189.26; 20752.162; 13920163.103484
3190.28; 20993.53; 13941533.611454
3191.29; 20847.887; 13962755.860901
3192.31; 20340.996; 13983462.11752
3193.33; 19553.717; 14003366.957391
3194.35; 18603.816; 14022304.839165
3195.37; 17620.073; 14040241.312762
3196.38; 16715.779; 14057257.254953
3197.40; 15968.509; 14073512.508277
3198.42; 15410.699; 14089199.934976
3199.44; 15032.112; 14104501.975846
3200.46; 14791.766; 14119559.355598
3201.47; 14634.615; 14134456.762215
3202.49; 14507.667; 14149224.940806
3203.51; 14371.423; 14163854.429248
3204.53; 14204.727; 14178314.228133
3205.55; 14003.518; 14192569.205323
3206.56; 13775.716; 14206592.289763
3207.58; 13535.007; 14220370.34282
3208.60; 13295.787; 14233904.879878
3209.62; 13070.299; 14247209.879937
3210.64; 12867.782; 14260308.727041
3211.65; 12694.674; 14273231.357283
3212.67; 12554.835; 14286011.637332
3213.69; 12449.255; 14298684.441858
3214.71; 12375.366; 14311282.030203
3215.73; 12326.574; 14323829.95068
3216.74; 12292.695; 14336343.383546
3217.76; 12261.571; 14348825.133952
3218.78; 12221.593; 14361266.188045
3219.80; 12164.323; 14373648.943693
3220.82; 12086.288; 14385952.263576
3221.83; 11989.235; 14398156.787832
3222.85; 11878.693; 14410248.784218
3223.87; 11761.286; 14422221.265707
3224.89; 11641.671; 14434071.984888
3225.91; 11520.044; 14445798.892799
3226.92; 11390.959; 14457394.397975
3227.94; 11243.772; 14468840.072664
3228.96; 11064.537; 14480103.293783
3229.98; 10838.863; 14491136.788954
3231.00; 10555.043; 14501881.36703
3232.01; 10206.777; 14512271.425449
3233.03; 9794.9579; 14522242.269893
3234.05; 9328.153; 14531737.927156
3235.07; 8821.6818; 14540718.018528
3236.08; 8295.433; 14549162.411381
3237.10; 7770.8307; 14557072.781669
3238.12; 7267.5682; 14564470.852513
3239.14; 6800.8304; 14571393.804428
3240.16; 6379.6332; 14577887.99578
3241.17; 6006.6297; 14584002.485613
3242.19; 5679.3074; 14589783.775523
3243.21; 5392.0793; 14595272.679569
3244.23; 5138.5007; 14600503.451577
3245.25; 4912.857; 14605504.527982
3246.26; 4710.6605; 14610299.777113
3247.28; 4528.0817; 14614909.168857
3248.30; 4360.8052; 14619348.280347
3249.32; 4203.0633; 14623626.817414
3250.34; 4047.5221; 14627747.020302
3251.35; 3886.3126; 14631703.118861
3252.37; 3712.9594; 14635482.751268
3253.39; 3524.5003; 14639070.540523
3254.41; 3322.913; 14642453.122576
3255.43; 3115.1559; 14645624.216853
3256.44; 2911.6315; 14648588.1321
3257.46; 2723.4762; 14651360.513369
3258.48; 2559.5416; 14653966.016231
3259.50; 2424.0638; 14656433.608568
3260.52; 2315.7705; 14658790.963024
3261.53; 2228.6518; 14661059.634376
3262.55; 2154.036; 14663252.35011
3263.57; 2083.1885; 14665372.946115
3264.59; 2009.5422; 14667418.57332
3265.61; 1929.896; 14669383.124157
3266.62; 1844.3592; 14671260.602188
3267.64; 1755.2911; 14673047.412803
3268.66; 1665.8044; 14674743.129776
3269.68; 1578.4554; 14676349.92922
3270.70; 1494.5614; 14677871.32828
3271.71; 1414.2556; 14679310.979446
3272.73; 1337.075; 14680672.064096
3273.75; 1262.7009; 14681957.439157
3274.77; 1191.4754; 14683170.309678
3275.79; 1124.4836; 14684314.985422
3276.80; 1063.2171; 14685397.29457
3277.82; 1009.0162; 14686424.429474
3278.84; 962.55875; 14687404.272742
3279.86; 923.61174; 14688344.469634
3280.87; 891.11965; 14689251.59098
3281.89; 863.56076; 14690130.658573
3282.91; 839.40421; 14690985.135834
3283.93; 817.48996; 14691817.305336
3284.95; 797.21451; 14692628.835305
3285.96; 778.49844; 14693421.313126
3286.98; 761.59351; 14694196.582458
3288.00; 746.82551; 14694956.818598
3289.02; 734.36153; 14695704.366949
3290.04; 724.05436; 14696441.423039
3291.05; 715.37832; 14697169.647301
3292.07; 707.44985; 14697889.80072
3293.09; 699.12352; 14698601.478299
3294.11; 689.16046; 14699303.013906
3295.13; 676.46261; 14699991.623648
3296.14; 660.3464; 14700663.827785
3297.16; 640.79676; 14701316.131232
3298.18; 618.61687; 14701945.856511
3299.20; 595.39076; 14702551.938612
3300.22; 573.21646; 14703135.448228
3301.23; 554.24016; 14703699.640792
3302.25; 540.1016; 14704249.440917
3303.27; 531.45402; 14704790.43818
3304.29; 527.72167; 14705327.636066
3305.31; 527.19592; 14705864.298764
3306.32; 527.46501; 14706401.235387
3307.34; 526.05901; 14706936.740762
3308.36; 521.11381; 14707467.212136
3309.38; 511.84628; 14707988.249564
3310.40; 498.69373; 14708495.898261
3311.41; 483.08366; 14708987.656576
3312.43; 466.923; 14709462.964038
3313.45; 451.98552; 14709923.06579
3314.47; 439.40008; 14710370.356106
3315.49; 429.39545; 14710807.462147
3316.50; 421.35947; 14711236.387909
3317.52; 414.1599; 14711657.984816
3318.54; 406.592; 14712071.877932
3319.56; 397.79051; 14712476.811508
3320.58; 387.47584; 14712871.245188
3321.59; 375.97843; 14713253.975011
3322.61; 364.06878; 14713624.581317
3323.63; 352.68196; 14713983.59633
3324.65; 342.64572; 14714332.394889
3325.67; 334.49768; 14714672.899096
3326.68; 328.42716; 14715007.223769
3327.70; 324.32413; 14715337.371735
3328.72; 321.88333; 14715665.035077
3329.74; 320.70637; 14715991.500326
3330.75; 320.36518; 14716317.618255
3331.77; 320.42205; 14716643.79408
3332.79; 320.42774; 14716969.975696
3333.81; 319.92776; 14717295.648349
3334.83; 318.49651; 14717619.864049
3335.84; 315.79702; 14717941.331786
3336.86; 311.64381; 14718258.57174
3337.88; 306.03907; 14718570.106305
3338.90; 299.16157; 14718874.639877
3339.92; 291.30906; 14719171.179928
3340.93; 282.81652; 14719459.074939
3341.95; 273.98469; 14719737.979534
3342.97; 265.04793; 14720007.786892
3343.99; 256.19105; 14720268.578324
3345.01; 247.59999; 14720520.624433
3346.02; 239.5129; 14720764.438225
3347.04; 232.2356; 14721000.84404
3348.06; 226.10107; 14721231.005175
3349.08; 221.37875; 14721456.359193
3350.10; 218.16598; 14721678.442747
3351.11; 216.30774; 14721898.634694
3352.13; 215.38536; 14722117.887694
3353.15; 214.79125; 14722336.535916
3354.17; 213.87437; 14722554.250795
3355.19; 212.11235; 14722770.172014
3356.20; 209.2536; 14722983.18315
3357.22; 205.38102; 14723192.252165
3358.24; 200.87565; 14723396.734907
3359.26; 196.29339; 14723596.553113
3360.28; 192.19764; 14723792.202013
3361.29; 189.00402; 14723984.599949
3362.31; 186.88645; 14724174.84229
3363.33; 185.7686; 14724363.946704
3364.35; 185.39321; 14724552.668988
3365.37; 185.4345; 14724741.433312
3366.38; 185.60691; 14724930.373136
3367.40; 185.73001; 14725119.438269
3368.42; 185.73143; 14725308.504856
3369.44; 185.59663; 14725497.434219
3370.46; 185.29626; 14725686.05782
3371.47; 184.72974; 14725874.10472
3372.49; 183.7144; 14726061.118054
3373.51; 182.02867; 14726246.415386
3374.53; 179.49275; 14726429.131261
3375.54; 176.05314; 14726608.345764
3376.56; 171.83366; 14726783.265012
3377.58; 167.12786; 14726953.393957
3378.60; 162.33064; 14727118.63954
3379.62; 157.83078; 14727279.304466
3380.63; 153.90229; 14727435.970357
3381.65; 150.63368; 14727589.308939
3382.67; 147.92078; 14727739.885914
3383.69; 145.52533; 14727888.024417
3384.71; 143.17724; 14728033.772665
3385.72; 140.68344; 14728176.982337
3386.74; 138.004; 14728317.464458
3387.76; 135.26936; 14728455.162826
3388.78; 132.73408; 14728590.280387
3389.80; 130.68521; 14728723.312296
3390.81; 129.33827; 14728854.97307
3391.83; 128.75653; 14728986.041663
3392.85; 128.81976; 14729117.174623
3393.87; 129.24987; 14729248.745415
3394.89; 129.6822; 14729380.756297
3395.90; 129.75726; 14729512.843588
3396.92; 129.20392; 14729644.367603
3397.94; 127.89116; 14729774.555284
3398.96; 125.8384; 14729902.653341
3399.98; 123.18849; 14730028.053913
3400.99; 120.15817; 14730150.369748
3402.01; 116.98416; 14730269.454578
3403.03; 113.88037; 14730385.379875
3404.05; 111.01352; 14730498.386853
3405.07; 108.49651; 14730608.831614
3406.08; 106.39244; 14730717.134524
3407.10; 104.72158; 14730823.73657
3408.12; 103.46558; 14730929.060066
3409.14; 102.56865; 14731033.470524
3410.16; 101.93933; 14731137.240366
3411.17; 101.45817; 14731240.520407
3412.19; 100.99427; 14731343.328214
3413.21; 100.42931; 14731445.560914
3414.23; 99.682754; 14731547.033656
3415.25; 98.729323; 14731647.535846
3416.26; 97.601093; 14731746.889547
3417.28; 96.371641; 14731844.991719
3418.30; 95.126519; 14731941.826411
3419.32; 93.930494; 14732037.443601
3420.34; 92.804426; 14732131.914502
3421.35; 91.722035; 14732225.283576
3422.37; 90.62962; 14732317.540619
3423.39; 89.48258; 14732408.630024
3424.41; 88.28487; 14732498.500212
3425.42; 87.114647; 14732587.179163
3426.44; 86.122811; 14732674.848468
3427.46; 85.500231; 14732761.884014
3428.48; 85.421022; 14732848.838929
3429.50; 85.979009; 14732936.36185
3430.51; 87.138804; 14733025.065392
3431.53; 88.719646; 14733115.378164
3432.55; 90.420311; 14733207.422139
3433.57; 91.880204; 14733300.952222
3434.59; 92.75985; 14733395.377746
3435.60; 92.817623; 14733489.862081
3436.62; 91.960797; 14733583.474204
3437.64; 90.257435; 14733675.352378
3438.66; 87.908114; 14733764.839044
3439.68; 85.188614; 14733851.557378
3440.69; 82.382508; 14733935.419216
3441.71; 79.723636; 14734016.574437
3442.73; 77.363048; 14734095.326681
3443.75; 75.365423; 14734172.04543
3444.77; 73.729941; 14734247.099328
3445.78; 72.423497; 14734320.823323
3446.80; 71.41202; 14734393.517677
3447.82; 70.678717; 14734465.465561
3448.84; 70.224507; 14734536.951079
3449.86; 70.053199; 14734608.262213
3450.87; 70.149491; 14734679.671368
3451.89; 70.459877; 14734751.396482
3452.91; 70.884937; 14734823.554288
3453.93; 71.287038; 14734896.121417
3454.95; 71.512116; 14734968.917665
3455.96; 71.419659; 14735041.619796
3456.98; 70.912644; 14735113.805807
3458.00; 69.959447; 14735185.021505
3459.02; 68.602289; 14735254.855675
3460.04; 66.950599; 14735323.008495
3461.05; 65.161562; 14735389.340153
3462.07; 63.412988; 14735453.891839
3463.09; 61.874874; 14735516.87779
3464.11; 60.685433; 14735578.652943
3465.13; 59.935482; 14735639.664677
3466.14; 59.662428; 14735700.398455
3467.16; 59.852754; 14735761.325975
3468.18; 60.450318; 14735822.86179
3469.20; 61.367393; 14735885.331148
3470.21; 62.496007; 14735948.949386
3471.23; 63.718336; 14736013.811903
3472.25; 64.916007; 14736079.893596
3473.27; 65.978774; 14736147.057141
3474.29; 66.812824; 14736215.069713
3475.30; 67.34833; 14736283.627407
3476.32; 67.545147; 14736352.385453
3477.34; 67.395317; 14736420.990977
3478.36; 66.921512; 14736489.114189
3479.38; 66.171613; 14736556.474035
3480.39; 65.210757; 14736622.855772
3481.41; 64.112822; 14736688.119858
3482.43; 62.9531; 14736752.203397
3483.45; 61.802884; 14736815.116066
3484.47; 60.725374; 14736876.931877
3485.48; 59.771513; 14736937.776697
3486.50; 58.974569; 14736997.810263
3487.52; 58.343629; 14737057.20156
3488.54; 57.858026; 14737116.098534
3489.56; 57.466063; 14737174.596506
3490.57; 57.09131; 14737232.712997
3491.59; 56.6477; 14737290.377911
3492.61; 56.061272; 14737347.445866
3493.63; 55.292929; 14737403.731682
3494.65; 54.354583; 14737459.062302
3495.66; 53.311912; 14737513.331527
3496.68; 52.270634; 14737566.540777
3497.70; 51.348813; 14737618.811654
3498.72; 50.643024; 14737670.364066
3499.74; 50.199184; 14737721.46467
3500.75; 49.997995; 14737772.360471
3501.77; 49.960315; 14737823.217916
3502.79; 49.971001; 14737874.086239
3503.81; 49.913341; 14737924.895867
3504.83; 49.702597; 14737975.490965
3505.84; 49.307865; 14738025.684244
3506.86; 48.756035; 14738075.315784
3507.88; 48.118319; 14738124.298156
3508.90; 47.485868; 14738172.636721
3509.92; 46.944134; 14738220.423823
3510.93; 46.554738; 14738267.814537
3511.95; 46.349358; 14738314.996184
3512.97; 46.334572; 14738362.162779
3513.99; 46.502108; 14738409.499918
3515.00; 46.8375; 14738457.178472
3516.02; 47.32209; 14738505.350318
3517.04; 47.927639; 14738554.138587
3518.06; 48.607368; 14738603.61879
3519.08; 49.289888; 14738653.793769
3520.09; 49.882008; 14738704.571501
3521.11; 50.28286; 14738755.757283
3522.13; 50.406835; 14738807.069266
3523.15; 50.208402; 14738858.179252
3524.17; 49.700062; 14738908.77177
3525.18; 48.956116; 14738958.606983
3526.20; 48.09926; 14739007.569955
3527.22; 47.272557; 14739055.691378
3528.24; 46.604155; 14739103.132397
3529.26; 46.17455; 14739150.136096
3530.27; 45.995487; 14739196.957516
3531.29; 46.00624; 14739243.789884
3532.31; 46.088078; 14739290.705559
3533.33; 46.092923; 14739337.626166
3534.35; 45.878761; 14739384.328765
3535.36; 45.343133; 14739430.486118
3536.38; 44.447017; 14739475.731264
3537.40; 43.224171; 14739519.731605
3538.42; 41.774618; 14739562.256363
3539.44; 40.244583; 14739603.223612
3540.45; 38.797987; 14739642.718288
3541.47; 37.586024; 14739680.979239
3542.49; 36.721249; 14739718.359886
3543.51; 36.26102; 14739755.27204
3544.53; 36.202598; 14739792.124722
3545.54; 36.489381; 14739829.269338
3546.56; 37.025403; 14739866.9596
3547.58; 37.693926; 14739905.33039
3548.60; 38.376038; 14739944.395541
3549.62; 38.96625; 14739984.061502
3550.63; 39.383796; 14740024.152506
3551.65; 39.579687; 14740064.44292
3552.67; 39.540293; 14740104.693232
3553.69; 39.287933; 14740144.686653
3554.71; 38.878251; 14740184.263035
3555.72; 38.393518; 14740223.345979
3556.74; 37.931139; 14740261.958242
3557.76; 37.587817; 14740300.221018
3558.78; 37.441554; 14740338.334904
3559.80; 37.535377; 14740376.544298
3560.81; 37.867225; 14740415.091499
3561.83; 38.389463; 14740454.170315
3562.85; 39.018969; 14740493.889942
3563.87; 39.655519; 14740534.257549
3564.88; 40.203499; 14740575.182976
3565.90; 40.590857; 14740616.502716
3566.92; 40.780242; 14740658.015243
3567.94; 40.770052; 14740699.517397
3568.96; 40.586587; 14740740.832791
3569.97; 40.271306; 14740781.827243
3570.99; 39.86821; 14740822.41136
3572.01; 39.41542; 14740862.534557
3573.03; 38.942526; 14740902.176368
3574.05; 38.472563; 14740941.339777
3575.06; 38.02568; 14740980.048279
3576.08; 37.621398; 14741018.345238
3577.10; 37.277788; 14741056.292417
3578.12; 37.008071; 14741093.965036
3579.14; 36.816825; 14741131.442975
3580.15; 36.698459; 14741168.800423
3581.17; 36.639498; 14741206.09785
3582.19; 36.62424; 14741243.379746
3583.21; 36.641438; 14741280.679149
3584.23; 36.688921; 14741318.026887
3585.24; 36.773833; 14741355.461063
3586.26; 36.908194; 14741393.032011
3587.28; 37.101672; 14741430.799912
3588.30; 37.35482; 14741468.825507
3589.32; 37.655757; 14741507.157443
3590.33; 37.981576; 14741545.821048
3591.35; 38.303448; 14741584.812305
3592.37; 38.592643; 14741624.09795
3593.39; 38.824463; 14741663.619578
3594.41; 38.978561; 14741703.298071
3595.42; 39.036478; 14741743.035521
3596.44; 38.979323; 14741782.714789
3597.46; 38.78902; 14741822.200338
3598.48; 38.455006; 14741861.345875
3599.50; 37.985225; 14741900.013195
3600.51; 37.417097; 14741938.102185
3601.53; 36.822548; 14741975.585949
3602.55; 36.302183; 14742012.540005
3603.57; 35.967324; 14742049.153188
3604.59; 35.913535; 14742085.711618
3605.60; 36.193451; 14742122.554989
3606.62; 36.798222; 14742160.013991
3607.64; 37.65483; 14742198.344982
3608.66; 38.641374; 14742237.680234
3609.67; 39.61612; 14742278.007734
3610.69; 40.451079; 14742319.185187
3611.71; 41.059242; 14742360.981724
3612.73; 41.406935; 14742403.132197
3613.75; 41.508426; 14742445.385984
3614.76; 41.406447; 14742487.535959
3615.78; 41.147319; 14742529.422154
3616.80; 40.760845; 14742570.914935
3617.82; 40.252592; 14742611.890337
3618.84; 39.610746; 14742652.212367
3619.85; 38.823616; 14742691.733133
3620.87; 37.899534; 14742730.313223
3621.89; 36.879974; 14742767.855446
3622.91; 35.839522; 14742804.338533
3623.93; 34.871553; 14742839.836269
3624.94; 34.064151; 14742874.512105
3625.96; 33.47463; 14742908.587834
3626.98; 33.111734; 14742942.294151
3628.00; 32.93197; 14742975.817475
3629.02; 32.851685; 14743009.259073
3630.03; 32.771249; 14743042.61879
3631.05; 32.603851; 14743075.808103
3632.07; 32.300138; 14743108.68825
3633.09; 31.861548; 14743141.121931
3634.11; 31.338802; 14743173.023479
3635.12; 30.816549; 14743204.393396
3636.14; 30.388941; 14743235.328027
3637.16; 30.133133; 14743266.002256
3638.18; 30.087781; 14743296.630319
3639.20; 30.241859; 14743327.415226
3640.21; 30.536147; 14743358.499706
3641.23; 30.876556; 14743389.930707
3642.25; 31.15569; 14743421.645856
3643.27; 31.277416; 14743453.484915
3644.29; 31.178823; 14743485.223612
3645.30; 30.844826; 14743516.622314
3646.32; 30.312386; 14743547.479014
3647.34; 29.663659; 14743577.675339
3648.36; 29.009648; 14743607.205909
3649.38; 28.467894; 14743636.184997
3650.39; 28.13893; 14743664.829213
3651.41; 28.086401; 14743693.419958
3652.43; 28.325006; 14743722.253592
3653.45; 28.818658; 14743751.589742
3654.47; 29.489087; 14743781.608361
3655.48; 30.232771; 14743812.384017
3656.50; 30.942276; 14743843.881919
3657.52; 31.527174; 14743875.975221
3658.54; 31.929924; 14743908.478506
3659.55; 32.133523; 14743941.189045
3660.57; 32.159757; 14743973.926291
3661.59; 32.059269; 14744006.561243
3662.61; 31.896439; 14744039.030442
3663.63; 31.733105; 14744071.333374
3664.64; 31.614928; 14744103.516006
3665.66; 31.563152; 14744135.645933
3666.68; 31.572849; 14744167.785732
3667.70; 31.617096; 14744199.970571
3668.72; 31.65535; 14744232.194352
3669.73; 31.643749; 14744264.406323
3670.75; 31.545127; 14744296.517901
3671.77; 31.337009; 14744328.417624
3672.79; 31.016387; 14744359.990967
3673.81; 30.600622; 14744391.14108
3674.82; 30.12428; 14744421.806297
3675.84; 29.632243; 14744451.970643
3676.86; 29.170188; 14744481.664635
3677.88; 28.774263; 14744510.955593
3678.90; 28.462494; 14744539.929183
3679.91; 28.230476; 14744568.666589
3680.93; 28.053203; 14744597.223539
3681.95; 27.893268; 14744625.617682
3682.97; 27.713633; 14744653.828965
3683.99; 27.491372; 14744681.813996
3685.00; 27.227963; 14744709.530887
3686.02; 26.9524; 14744736.967268
3687.04; 26.715489; 14744764.162482
3688.06; 26.576579; 14744791.216294
3689.08; 26.586662; 14744818.280369
3690.09; 26.773138; 14744845.534268
3691.11; 27.131128; 14744873.152585
3692.13; 27.623985; 14744901.27261
3693.15; 28.192525; 14744929.971384
3694.17; 28.769552; 14744959.257547
3695.18; 29.294709; 14744989.078296
3696.20; 29.724978; 14745019.337041
3697.22; 30.038176; 14745049.914608
3698.24; 30.229676; 14745080.687114
3699.26; 30.305072; 14745111.53637
3700.27; 30.272704; 14745142.352676
3701.29; 30.139435; 14745173.03332
3702.31; 29.911123; 14745203.481552
3703.33; 29.596841; 14745233.609859
3704.34; 29.21406; 14745263.348512
3705.36; 28.791515; 14745292.657032
3706.38; 28.367518; 14745321.533942
3707.40; 27.983507; 14745350.019944
3708.42; 27.674778; 14745378.191674
3709.43; 27.461706; 14745406.146506
3710.45; 27.344701; 14745433.982231
3711.47; 27.304856; 14745461.777396
3712.49; 27.310112; 14745489.577912
3713.51; 27.324828; 14745517.393408
3714.52; 27.319565; 14745545.203546
3715.54; 27.278102; 14745572.971477
3716.56; 27.19994; 14745600.659842
3717.58; 27.098385; 14745628.244829
3718.60; 26.995742; 14745655.725329
3719.61; 26.917876; 14745683.126565
3720.63; 26.889975; 14745710.4994
3721.65; 26.934253; 14745737.917307
3722.67; 27.069032; 14745765.472413
3723.69; 27.307863; 14745793.270639
3724.70; 27.657417; 14745821.424696
3725.72; 28.113825; 14745850.043357
3726.74; 28.658526; 14745879.2165
3727.76; 29.255765; 14745908.997606
3728.78; 29.854084; 14745939.387775
3729.79; 30.393239; 14745970.326782
3730.81; 30.816022; 14746001.696163
3731.83; 31.082333; 14746033.336636
3732.85; 31.181247; 14746065.0778
3733.87; 31.136644; 14746096.773559
3734.88; 31.00342; 14746128.333703
3735.90; 30.854167; 14746159.741913
3736.92; 30.759482; 14746191.053739
3737.94; 30.767669; 14746222.373898
3738.96; 30.890428; 14746253.81902
3739.97; 31.099708; 14746285.477181
3740.99; 31.33752; 14746317.377424
3742.01; 31.5362; 14746349.479915
3743.03; 31.642867; 14746381.690988
3744.05; 31.639941; 14746413.899083
3745.06; 31.554474; 14746446.020175
3746.08; 31.45248; 14746478.037443
3747.10; 31.419398; 14746510.021034
3748.12; 31.532617; 14746542.119878
3749.14; 31.83501; 14746574.526544
3750.15; 32.318377; 14746607.425257
3751.17; 32.922737; 14746640.939183
3752.19; 33.552205; 14746675.093879
3753.21; 34.102707; 14746709.808964
3754.22; 34.492772; 14746744.921117
3755.24; 34.687493; 14746780.231489
3756.26; 34.707974; 14746815.562708
3757.28; 34.62328; 14746850.807713
3758.30; 34.527613; 14746885.955333
3759.31; 34.510156; 14746921.085183
3760.33; 34.62727; 14746956.334249
3761.35; 34.885732; 14746991.846419
3762.37; 35.242066; 14747027.721322
3763.39; 35.61779; 14747063.978695
3764.40; 35.925542; 14747100.549347
3765.42; 36.097908; 14747137.295459
3766.44; 36.110245; 14747174.054131
3767.46; 35.990905; 14747210.691319
3768.48; 35.816094; 14747247.150557
3769.49; 35.691013; 14747283.482468
3770.51; 35.722543; 14747319.846475
3771.53; 35.990741; 14747356.483496
3772.55; 36.526432; 14747393.665828
3773.57; 37.300371; 14747431.635996
3774.58; 38.226514; 14747470.548937
3775.60; 39.178483; 14747510.430942
3776.62; 40.015338; 14747551.164829
3777.64; 40.610643; 14747592.504712
3778.66; 40.878196; 14747634.116952
3779.67; 40.788636; 14747675.638023
3780.69; 40.373371; 14747716.736373
3781.71; 39.715378; 14747757.164914
3782.73; 38.929628; 14747796.793595
3783.75; 38.138417; 14747835.616858
3784.76; 37.447894; 14747873.737198
3785.78; 36.931357; 14747911.331726
3786.80; 36.622536; 14747948.611887
3787.82; 36.518915; 14747985.786567
3788.84; 36.592204; 14748023.035852
3789.85; 36.801348; 14748060.498036
3790.87; 37.103538; 14748098.267837
3791.89; 37.460406; 14748136.400914
3792.91; 37.83921; 14748174.919597
3793.93; 38.211174; 14748213.816923
3794.94; 38.550275; 14748253.05944
3795.96; 38.835156; 14748292.591953
3796.98; 39.054828; 14748332.348082
3798.00; 39.216267; 14748372.26855
3799.01; 39.350151; 14748412.325306
3800.03; 39.510638; 14748452.54543
3801.05; 39.766701; 14748493.026216
3802.07; 40.185391; 14748533.93321
3803.09; 40.810639; 14748575.476679
3804.10; 41.643496; 14748617.86796
3805.12; 42.630183; 14748661.263648
3806.14; 43.662787; 14748705.71048
3807.16; 44.594251; 14748751.105503
3808.18; 45.265547; 14748797.183877
3809.19; 45.539485; 14748843.541107
3810.21; 45.333599; 14748889.688755
3811.23; 44.644249; 14748935.134674
3812.25; 43.555636; 14748979.472432
3813.27; 42.230487; 14749022.461246
3814.28; 40.883053; 14749064.078429
3815.30; 39.739159; 14749104.531178
3816.32; 38.991411; 14749144.222752
3817.34; 38.759476; 14749183.678226
3818.36; 39.064997; 14749223.444706
3819.37; 39.827856; 14749263.987745
3820.39; 40.885578; 14749305.607499
3821.41; 42.031718; 14749348.393974
3822.43; 43.0638; 14749392.231064
3823.45; 43.828379; 14749436.846463
3824.46; 44.251376; 14749481.892454
3825.48; 44.345965; 14749527.034732
3826.50; 44.196994; 14749572.025365
3827.52; 43.927903; 14749616.742075
3828.54; 43.661189; 14749661.187281
3829.55; 43.484783; 14749705.452913
3830.57; 43.433923; 14749749.666773
3831.59; 43.49229; 14749793.940047
3832.61; 43.609513; 14749838.332649
3833.63; 43.727119; 14749882.844969
3834.64; 43.803227; 14749927.434764
3835.66; 43.828127; 14749972.049906
3836.68; 43.827254; 14750016.664159
3837.70; 43.852946; 14750061.304566
3838.72; 43.969856; 14750106.063982
3839.73; 44.239829; 14750151.098219
3840.75; 44.7106; 14750196.61168
3841.77; 45.40995; 14750242.837049
3842.79; 46.34451; 14750290.013761
3843.81; 47.501232; 14750338.367965
3844.82; 48.849975; 14750388.095132
3845.84; 50.346808; 14750439.34601
3846.86; 51.93855; 14750492.217212
3847.88; 53.568833; 14750546.747972
3848.89; 55.184716; 14750602.923632
3849.91; 56.741353; 14750660.683881
3850.93; 58.20175; 14750719.930751
3851.95; 59.530034; 14750780.529757
3852.97; 60.679744; 14750842.299117
3853.98; 61.582214; 14750904.987154
3855.00; 62.142266; 14750968.245299
3856.02; 62.247526; 14751031.610595
3857.04; 61.793414; 14751094.513624
3858.06; 60.719393; 14751156.323346
3859.07; 59.045932; 14751216.429557
3860.09; 56.898554; 14751274.34983
3861.11; 54.507257; 14751329.835866
3862.13; 52.176315; 14751382.949103
3863.15; 50.228951; 14751434.080008
3864.16; 48.940292; 14751483.899113
3865.18; 48.476854; 14751533.246459
3866.20; 48.859731; 14751582.983556
3867.22; 49.96187; 14751633.842584
3868.24; 51.53979; 14751686.307867
3869.25; 53.290234; 14751740.555025
3870.27; 54.916047; 14751796.457192
3871.29; 56.184577; 14751853.650666
3872.31; 56.965944; 14751911.639539
3873.33; 57.2455; 14751969.912987
3874.34; 57.111922; 14752028.05046
3875.36; 56.727432; 14752085.796537
3876.38; 56.288574; 14752143.095877
3877.40; 55.985429; 14752200.086627
3878.42; 55.965313; 14752257.056901
3879.43; 56.305482; 14752314.373452
3880.45; 56.998433; 14752372.395397
3881.47; 57.952883; 14752431.388932
3882.49; 59.012138; 14752491.460742
3883.51; 59.988693; 14752552.526643
3884.52; 60.709569; 14752614.326364
3885.54; 61.062409; 14752676.485261
3886.56; 61.029791; 14752738.610955
3887.58; 60.700355; 14752800.401296
3888.60; 60.250745; 14752861.733955
3889.61; 59.900885; 14752922.710471
3890.63; 59.853909; 14752983.639168
3891.65; 60.238; 14753044.958853
3892.67; 61.067837; 14753107.123276
3893.68; 62.237878; 14753170.47875
3894.70; 63.549904; 14753235.16981
3895.72; 64.766526; 14753301.099339
3896.74; 65.674506; 14753367.953152
3897.76; 66.139364; 14753435.280171
3898.77; 66.136532; 14753502.604306
3899.79; 65.752475; 14753569.537488
3900.81; 65.158682; 14753635.866215
3901.83; 64.568748; 14753701.594414
3902.85; 64.191837; 14753766.938934
3903.86; 64.194207; 14753832.285867
3904.88; 64.675584; 14753898.122821
3905.90; 65.661542; 14753964.963438
3906.92; 67.10876; 14754033.277259
3907.94; 68.918304; 14754103.433119
3908.95; 70.952769; 14754175.659977
3909.97; 73.054777; 14754250.026587
3910.99; 75.065746; 14754326.440278
3912.01; 76.843929; 14754404.664081
3913.03; 78.27982; 14754484.349559
3914.04; 79.306025; 14754565.07967
3915.06; 79.898783; 14754646.413184
3916.08; 80.070159; 14754727.921151
3917.10; 79.853041; 14754809.208101
3918.12; 79.284175; 14754889.91597
3919.13; 78.391903; 14754969.715545
3920.15; 77.193988; 14755048.295694
3921.17; 75.707037; 14755125.362191
3922.19; 73.963969; 14755200.65432
3923.21; 72.031891; 14755273.979676
3924.22; 70.021593; 14755345.258636
3925.24; 68.082433; 14755414.563615
3926.26; 66.381866; 14755482.137491
3927.28; 65.075096; 14755548.38113
3928.30; 64.274631; 14755613.809931
3929.31; 64.030021; 14755678.989729
3930.33; 64.324258; 14755744.469048
3931.35; 65.086903; 14755810.724707
3932.37; 66.217397; 14755878.131159
3933.39; 67.60838; 14755946.953573
3934.40; 69.159564; 14756017.355024
3935.42; 70.777734; 14756089.403704
3936.44; 72.365676; 14756163.068839
3937.46; 73.808908; 14756238.203123
3938.48; 74.971428; 14756314.520802
3939.49; 75.708731; 14756391.589022
3940.51; 75.89913; 14756468.851062
3941.53; 75.485617; 14756545.692163
3942.55; 74.513794; 14756621.54399
3943.56; 73.149805; 14756696.007335
3944.58; 71.666728; 14756768.960971
3945.60; 70.397476; 14756840.622564
3946.62; 69.663505; 14756911.537006
3947.64; 69.697628; 14756982.486184
3948.65; 70.582696; 14757054.336323
3949.67; 72.22437; 14757127.857615
3950.69; 74.366822; 14757203.559831
3951.71; 76.647943; 14757281.584129
3952.73; 78.679506; 14757361.676472
3953.74; 80.131132; 14757443.246506
3954.76; 80.796751; 14757525.494112
3955.78; 80.628102; 14757607.570041
3956.80; 79.729622; 14757688.731355
3957.82; 78.319568; 14757768.457296
3958.83; 76.670348; 14757846.504402
3959.85; 75.044807; 14757922.896777
3960.87; 73.644109; 14757997.863302
3961.89; 72.577865; 14758071.744436
3962.91; 71.86018; 14758144.894999
3963.92; 71.428487; 14758217.606116
3964.94; 71.177069; 14758290.061301
3965.96; 70.994982; 14758362.331129
3966.98; 70.798671; 14758434.401121
3968.00; 70.552355; 14758506.220375
3969.01; 70.273121; 14758577.75538
3970.03; 70.021689; 14758649.034438
3971.05; 69.883002; 14758720.172318
3972.07; 69.942626; 14758791.370893
3973.09; 70.265162; 14758862.897796
3974.10; 70.879587; 14758935.050157
3975.12; 71.77408; 14759008.113073
3976.14; 72.900132; 14759082.322262
3977.16; 74.183341; 14759157.837703
3978.18; 75.536927; 14759234.731035
3979.19; 76.874034; 14759312.985484
3980.21; 78.116219; 14759392.504424
3981.23; 79.197577; 14759473.124139
3982.25; 80.065969; 14759554.62784
3983.27; 80.683831; 14759636.760499
3984.28; 81.030736; 14759719.246291
3985.30; 81.10819; 14759801.810929
3986.32; 80.944927; 14759884.209372
3987.34; 80.599139; 14759966.255818
3988.35; 80.153783; 14760047.848911
3989.37; 79.702702; 14760128.982822
3990.39; 79.328632; 14760209.735946
3991.41; 79.078027; 14760290.233965
3992.43; 78.940559; 14760370.592048
3993.44; 78.841669; 14760450.849464
3994.46; 78.654034; 14760530.915877
3995.48; 78.228498; 14760610.549111
3996.50; 77.438588; 14760689.378253
3997.52; 76.227165; 14760766.974217
3998.53; 74.641205; 14760842.955743
3999.55; 72.842473; 14760917.106238
4000.57; 71.087681; 14760989.470429
4001.59; 69.680217; 14761060.401884
4002.61; 68.904092; 14761130.543276
4003.62; 68.956617; 14761200.738137
4004.64; 69.89763; 14761271.890908
4005.66; 71.629225; 14761344.806368
4006.68; 73.911972; 14761420.045566
4007.70; 76.413967; 14761497.831688
4008.71; 78.780497; 14761578.026834
4009.73; 80.707082; 14761660.183161
4010.75; 81.99844; 14761743.654035
4011.77; 82.600186; 14761827.73746
4012.79; 82.597464; 14761911.818113
4013.80; 82.182873; 14761995.476732
4014.82; 81.602938; 14762078.545001
4015.84; 81.096469; 14762161.097708
4016.86; 80.838906; 14762243.388226
4017.88; 80.904418; 14762325.745433
4018.89; 81.253115; 14762408.457598
4019.91; 81.745173; 14762491.670657
4020.93; 82.178107; 14762575.324424
4021.95; 82.338661; 14762659.141628
4022.97; 82.057545; 14762742.672668
4023.98; 81.254293; 14762825.386032
4025.00; 79.96113; 14762906.783012
4026.02; 78.319167; 14762986.508544
4027.04; 76.546729; 14763064.429811
4028.06; 74.88686; 14763140.661403
4029.07; 73.547131; 14763215.529209
4030.09; 72.647747; 14763289.481481
4031.11; 72.192441; 14763362.97027
4032.13; 72.070614; 14763436.335046
4033.15; 72.090307; 14763509.719868
4034.16; 72.032416; 14763583.045759
4035.18; 71.710249; 14763656.043698
4036.20; 71.01711; 14763728.336051
4037.22; 69.948826; 14763799.540938
4038.23; 68.596394; 14763869.369107
4039.25; 67.113506; 14763937.68776
4040.27; 65.671063; 14764004.538068
4041.29; 64.413591; 14764070.108324
4042.31; 63.429906; 14764134.677231
4043.32; 62.74388; 14764198.547793
4044.34; 62.323477; 14764261.990403
4045.36; 62.100426; 14764325.205957
4046.38; 61.991065; 14764388.310186
4047.40; 61.911226; 14764451.333143
4048.41; 61.783009; 14764514.22558
4049.43; 61.536295; 14764576.866873
4050.45; 61.110447; 14764639.07467
4051.47; 60.460712; 14764700.621066
4052.49; 59.570038; 14764761.260794
4053.50; 58.462348; 14764820.772942
4054.52; 57.210377; 14764879.010637
4055.54; 55.931587; 14764935.946578
4056.56; 54.769659; 14764991.699728
4057.58; 53.864884; 14765046.531855
4058.59; 53.32194; 14765100.811289
4059.61; 53.185563; 14765154.951897
4060.63; 53.432378; 14765209.343752
4061.65; 53.981485; 14765264.294574
4062.67; 54.719485; 14765319.996649
4063.68; 55.530502; 14765376.524304
4064.70; 56.320439; 14765433.85608
4065.72; 57.027767; 14765491.907886
4066.74; 57.619193; 14765550.561738
4067.76; 58.074883; 14765609.679463
4068.77; 58.371925; 14765669.099564
4069.79; 58.474673; 14765728.624258
4070.81; 58.336834; 14765788.008637
4071.83; 57.914442; 14765846.96304
4072.85; 57.183814; 14765905.173696
4073.86; 56.156462; 14765962.33855
4074.88; 54.884498; 14766018.208601
4075.90; 53.454405; 14766072.622878
4076.92; 51.972007; 14766125.528139
4077.94; 50.544779; 14766176.980543
4078.95; 49.267772; 14766227.133009
4079.97; 48.216672; 14766276.215501
4080.99; 47.447259; 14766324.514763
4082.01; 46.99723; 14766372.355915
4083.02; 46.885579; 14766420.083411
4084.04; 47.107057; 14766468.036362
4085.06; 47.623389; 14766516.514918
4086.08; 48.356818; 14766565.740072
4087.10; 49.192737; 14766615.816156
4088.11; 49.995817; 14766666.70974
4089.13; 50.638537; 14766718.257586
4090.15; 51.034736; 14766770.208744
4091.17; 51.166605; 14766822.29414
4092.19; 51.09367; 14766874.305292
4093.20; 50.937361; 14766926.157328
4094.22; 50.843225; 14766977.913536
4095.24; 50.931527; 14767029.759633
4096.26; 51.252456; 14767081.932422
4097.28; 51.761879; 14767134.623781
4098.29; 52.327407; 14767187.890823
4099.31; 52.764312; 14767241.602616
4100.33; 52.89046; 14767295.442822
4101.35; 52.582565; 14767348.969604
4102.37; 51.815515; 14767401.715563
4103.38; 50.672389; 14767453.297868
4104.40; 49.322931; 14767503.506483
4105.42; 47.978905; 14767552.346938
4106.44; 46.841967; 14767600.030039
4107.46; 46.060971; 14767646.918119
4108.47; 45.710735; 14767693.449675
4109.49; 45.795397; 14767740.067413
4110.51; 46.270208; 14767787.168489
4111.53; 47.069549; 14767835.083258
4112.55; 48.128335; 14767884.075826
4113.56; 49.388723; 14767934.351415
4114.58; 50.791947; 14767986.055424
4115.60; 52.262719; 14768039.256617
4116.62; 53.697673; 14768093.918532
4117.64; 54.968021; 14768149.873605
4118.65; 55.940451; 14768206.81857
4119.67; 56.511798; 14768264.345142
4120.69; 56.645687; 14768322.008007
4121.71; 56.396402; 14768379.41711
4122.73; 55.908101; 14768436.329145
4123.74; 55.385428; 14768492.709121
4124.76; 55.041722; 14768548.739219
4125.78; 55.039765; 14768604.767325
4126.80; 55.443809; 14768661.20673
4127.82; 56.199156; 14768718.415045
4128.83; 57.147252; 14768776.588482
4129.85; 58.073068; 14768835.70436
4130.87; 58.771057; 14768895.53076
4131.89; 59.109838; 14768955.702025
4132.90; 59.075869; 14769015.83871
4133.92; 58.78264; 14769075.676901
4134.94; 58.442309; 14769135.16865
4135.96; 58.307831; 14769194.523506
4136.98; 58.602225; 14769254.178042
4137.99; 59.455173; 14769314.700842
4139.01; 60.864832; 14769376.658615
4140.03; 62.695534; 14769440.479963
4141.05; 64.711942; 14769506.353928
4142.07; 66.640252; 14769574.190829
4143.08; 68.239646; 14769643.655844
4144.10; 69.364394; 14769714.265804
4145.12; 69.999451; 14769785.522224
4146.14; 70.259496; 14769857.043359
4147.16; 70.35139; 14769928.658038
4148.17; 70.510368; 14770000.43455
4149.19; 70.928147; 14770072.636343
4150.21; 71.69413; 14770145.617874
4151.23; 72.767837; 14770219.692393
4152.25; 73.991986; 14770295.013041
4153.26; 75.143588; 14770371.505971
4154.28; 76.00842; 14770448.879263
4155.30; 76.456175; 14770526.708351
4156.32; 76.492345; 14770604.574257
4157.34; 76.269319; 14770682.213133
4158.35; 76.05158; 14770759.630359
4159.37; 76.144446; 14770837.142119
4160.39; 76.80764; 14770915.328982
4161.41; 78.180056; 14770994.912906
4162.43; 80.238437; 14771076.592173
4163.44; 82.801552; 14771160.880579
4164.46; 85.576642; 14771247.993908
4165.48; 88.231683; 14771337.809954
4166.50; 90.469911; 14771429.90442
4167.52; 92.084555; 14771523.642523
4168.53; 92.980691; 14771618.292854
4169.55; 93.164093; 14771713.129881
4170.57; 92.708621; 14771807.503257
4171.59; 91.719765; 14771900.87002
4172.61; 90.310389; 14771992.802098
4173.62; 88.596528; 14772082.98954
4174.64; 86.710157; 14772171.256739
4175.66; 84.816794; 14772257.596576
4176.68; 83.122607; 14772342.211802
4177.69; 81.859702; 14772425.541446
4178.71; 81.247769; 14772508.248169
4179.73; 81.441377; 14772591.151976
4180.75; 82.480241; 14772675.113303
4181.77; 84.261318; 14772760.887689
4182.78; 86.545756; 14772848.987534
4183.80; 89.002582; 14772939.588321
4184.82; 91.278643; 14773032.506041
4185.84; 93.075268; 14773127.252648
4186.86; 94.209682; 14773223.154039
4187.87; 94.644167; 14773319.497717
4188.89; 94.476375; 14773415.670589
4189.91; 93.896427; 14773511.2531
4190.93; 93.126097; 14773606.051449
4191.95; 92.359565; 14773700.069501
4192.96; 91.722765; 14773793.439318
4193.98; 91.260691; 14773886.338763
4195.00; 90.952026; 14773978.924
4196.02; 90.741732; 14774071.295168
4197.04; 90.577459; 14774163.499113
4198.05; 90.436068; 14774255.559128
4199.07; 90.331581; 14774347.51278
4200.09; 90.303366; 14774439.437709
4201.11; 90.390687; 14774531.451528
4202.13; 90.604468; 14774623.682966
4203.14; 90.907837; 14774716.223221
4204.16; 91.213776; 14774809.074909
4205.18; 91.402159; 14774902.118362
4206.20; 91.351699; 14774995.11045
4207.22; 90.977033; 14775087.721144
4208.23; 90.258926; 14775179.600835
4209.25; 89.257215; 14775270.460829
4210.27; 88.101043; 14775360.143889
4211.29; 86.957783; 14775448.663159
4212.31; 85.988758; 14775536.196004
4213.32; 85.304316; 14775623.032117
4214.34; 84.931599; 14775709.48882
4215.36; 84.805092; 14775795.816745
4216.38; 84.78352; 14775882.122709
4217.40; 84.688843; 14775968.332296
4218.41; 84.356336; 14776054.203406
4219.43; 83.681162; 14776139.387218
4220.45; 82.647786; 14776223.519098
4221.47; 81.333719; 14776306.313314
4222.49; 79.887021; 14776387.634854
4223.50; 78.485099; 14776467.529298
4224.52; 77.287981; 14776546.205127
4225.54; 76.400574; 14776623.977615
4226.56; 75.854886; 14776701.194615
4227.57; 75.616063; 14776778.168504
4228.59; 75.607824; 14776855.134006
4229.61; 75.746409; 14776932.240582
4230.63; 75.969798; 14777009.574557
4231.65; 76.251605; 14777087.195401
4232.66; 76.595641; 14777165.166458
4233.68; 77.015237; 14777243.564646
4234.70; 77.507819; 14777322.464261
4235.72; 78.037412; 14777401.902979
4236.74; 78.534615; 14777481.847828
4237.75; 78.916339; 14777562.181256
4238.77; 79.11882; 14777642.7208
4239.79; 79.130809; 14777723.27255
4240.81; 79.012086; 14777803.703444
4241.83; 78.886735; 14777884.006736
4242.84; 78.909653; 14777964.333358
4243.86; 79.215215; 14778044.971029
4244.88; 79.864975; 14778126.270127
4245.90; 80.81336; 14778208.53464
4246.92; 81.905364; 14778291.910765
4247.93; 82.909743; 14778376.309306
4248.95; 83.57883; 14778461.388948
4249.97; 83.716416; 14778546.608647
4250.99; 83.231832; 14778631.33506
4252.01; 82.162797; 14778714.973242
4253.02; 80.66025; 14778797.081896
4254.04; 78.941333; 14778877.440766
4255.06; 77.2272; 14778956.054723
4256.08; 75.686612; 14779033.100428
4257.10; 74.402895; 14779108.839364
4258.11; 73.372445; 14779183.529348
4259.13; 72.531193; 14779257.362972
4260.15; 71.795965; 14779330.448167
4261.17; 71.10376; 14779402.828726
4262.19; 70.434738; 14779474.52825
4263.20; 69.812576; 14779545.59444
4264.22; 69.285245; 14779616.123829
4265.24; 68.896421; 14779686.257413
4266.26; 68.660119; 14779756.150452
4267.28; 68.548243; 14779825.929605
4268.29; 68.494485; 14779895.654035
4269.31; 68.411254; 14779965.29374
4270.33; 68.21203; 14780034.730643
4271.35; 67.831012; 14780103.779685
4272.36; 67.234849; 14780172.22186
4273.38; 66.425588; 14780239.840242
4274.40; 65.437517; 14780306.45281
4275.42; 64.331673; 14780371.939678
4276.44; 63.190418; 14780436.264797
4277.45; 62.111803; 14780499.491932
4278.47; 61.201517; 14780561.792435
4279.49; 60.560323; 14780623.440231
4280.51; 60.267244; 14780684.789685
4281.53; 60.36218; 14780746.235779
4282.54; 60.834027; 14780808.162193
4283.56; 61.620066; 14780870.888762
4284.58; 62.619063; 14780934.632266
4285.60; 63.715199; 14780999.49159
4286.62; 64.805204; 14781065.46049
4287.63; 65.819114; 14781132.461508
4288.65; 66.727268; 14781200.386987
4289.67; 67.531761; 14781269.131406
4290.69; 68.247271; 14781338.604183
4291.71; 68.880897; 14781408.721964
4292.72; 69.421025; 14781479.389571
4293.74; 69.840939; 14781550.484634
4294.76; 70.115616; 14781621.859306
4295.78; 70.243213; 14781693.363865
4296.80; 70.259516; 14781764.88502
4297.81; 70.235829; 14781836.382063
4298.83; 70.257807; 14781907.901479
4299.85; 70.391729; 14781979.557221
4300.87; 70.651576; 14782051.477477
4301.89; 70.981824; 14782123.733911
4302.90; 71.265925; 14782196.279547
4303.92; 71.360758; 14782268.92172
4304.94; 71.146724; 14782341.346014
4305.96; 70.575954; 14782413.18929
4306.98; 69.700549; 14782484.141441
4307.99; 68.669148; 14782554.04367
4309.01; 67.691219; 14782622.95041
4310.03; 66.97996; 14782691.13312
4311.05; 66.692185; 14782759.022886
4312.07; 66.884446; 14782827.108366
4313.08; 67.498701; 14782895.819131
4314.10; 68.380681; 14782965.427714
4315.12; 69.323588; 14783035.996135
4316.14; 70.122676; 14783107.377994
4317.15; 70.624592; 14783179.270781
4318.17; 70.759041; 14783251.300431
4319.19; 70.547163; 14783323.114399
4320.21; 70.088181; 14783394.461143
4321.23; 69.530865; 14783465.240563
4322.24; 69.038187; 14783535.518459
4323.26; 68.752578; 14783605.505617
4324.28; 68.767034; 14783675.50749
4325.30; 69.105297; 14783745.8537
4326.32; 69.713283; 14783816.818814
4327.33; 70.463543; 14783888.547661
4328.35; 71.173806; 14783960.999523
4329.37; 71.638712; 14784033.924641
4330.39; 71.670537; 14784106.882155
4331.41; 71.140951; 14784179.300573
4332.42; 70.013491; 14784250.571286
4333.44; 68.356859; 14784320.155618
4334.46; 66.333329; 14784387.680084
4335.48; 64.163457; 14784452.995715
4336.50; 62.075792; 14784516.186193
4337.51; 60.2556; 14784577.523794
4338.53; 58.807497; 14784637.387287
4339.55; 57.742627; 14784696.16679
4340.57; 56.992992; 14784754.183196
4341.59; 56.446475; 14784811.643272
4342.60; 55.989513; 14784868.638181
4343.62; 55.542529; 14784925.178079
4344.64; 55.076983; 14784981.244071
4345.66; 54.610532; 14785036.835235
4346.68; 54.185354; 14785091.993588
4347.69; 53.840781; 14785146.801179
4348.71; 53.592606; 14785201.356139
4349.73; 53.427553; 14785255.743083
4350.75; 53.31405; 14785310.014485
4351.77; 53.222917; 14785364.193118
4352.78; 53.146957; 14785418.294427
4353.80; 53.108828; 14785472.356923
4354.82; 53.151707; 14785526.463067
4355.84; 53.315134; 14785580.735573
4356.86; 53.605634; 14785635.303795
4357.87; 53.975179; 14785690.248198
4358.89; 54.318635; 14785745.542224
4359.91; 54.494573; 14785801.015348
4360.93; 54.364766; 14785856.356334
4361.95; 53.839893; 14785911.163022
4362.96; 52.915508; 14785965.028726
4363.98; 51.684825; 14786017.641648
4365.00; 50.322388; 14786068.867668
4366.02; 49.042631; 14786118.79095
4367.03; 48.045955; 14786167.699659
4368.05; 47.469135; 14786216.02119
4369.07; 47.35513; 14786264.226669
4370.09; 47.650522; 14786312.732844
4371.11; 48.229414; 14786361.828306
4372.12; 48.934179; 14786411.641189
4373.14; 49.618937; 14786462.151126
4374.16; 50.182249; 14786513.23449
4375.18; 50.580794; 14786564.723556
4376.20; 50.823193; 14786616.459374
4377.21; 50.94992; 14786668.324193
4378.23; 51.008906; 14786720.249059
4379.25; 51.036086; 14786772.201592
4380.27; 51.0464; 14786824.164624
4381.29; 51.035729; 14786876.116794
4382.30; 50.989928; 14786928.02234
4383.32; 50.895373; 14786979.831634
4384.34; 50.746328; 14787031.489206
4385.36; 50.547311; 14787082.944187
4386.38; 50.311598; 14787134.159223
4387.39; 50.058706; 14787185.116826
4388.41; 49.813327; 14787235.824643
4389.43; 49.606213; 14787286.321627
4390.45; 49.47517; 14787336.685215
4391.47; 49.463094; 14787387.03651
4392.48; 49.610796; 14787437.53816
4393.50; 49.944922; 14787488.379935
4394.52; 50.464595; 14787539.750716
4395.54; 51.132523; 14787591.801418
4396.56; 51.876108; 14787644.609058
4397.57; 52.601; 14787698.154605
4398.59; 53.214673; 14787752.324847
4399.61; 53.65284; 14787806.941123
4400.63; 53.899066; 14787861.808046
4401.65; 53.989236; 14787916.766758
4402.66; 53.997434; 14787971.733816
4403.68; 54.006764; 14788026.710371
4404.70; 54.074985; 14788081.756373
4405.72; 54.207904; 14788136.93768
4406.74; 54.351702; 14788192.265367
4407.75; 54.409104; 14788247.651487
4408.77; 54.275541; 14788302.901646
4409.79; 53.883544; 14788357.752769
4410.81; 53.239504; 14788411.948286
4411.82; 52.438562; 14788465.32848
4412.84; 51.650342; 14788517.906299
4413.86; 51.078215; 14788569.901718
4414.88; 50.904244; 14788621.720042
4415.90; 51.237392; 14788673.877496
4416.91; 52.081982; 14788726.894706
4417.93; 53.336829; 14788781.189296
4418.95; 54.825263; 14788836.999049
4419.97; 56.346042; 14788894.356888
4420.99; 57.728451; 14788953.12196
4422.00; 58.874072; 14789013.053225
4423.02; 59.772885; 14789073.899442
4424.04; 60.490522; 14789135.476183
4425.06; 61.133335; 14789197.707281
4426.08; 61.80491; 14789260.622012
4427.09; 62.569468; 14789324.315031
4428.11; 63.433918; 14789388.888023
4429.13; 64.352676; 14789454.39627
4430.15; 65.250867; 14789520.818837
4431.17; 66.055196; 14789588.060176
4432.18; 66.719901; 14789655.978156
4433.20; 67.238177; 14789724.423719
4434.22; 67.635909; 14789793.274156
4435.24; 67.951926; 14789862.446284
4436.26; 68.214265; 14789931.885463
4437.27; 68.423306; 14790001.537435
4438.29; 68.549498; 14790071.317867
4439.31; 68.547171; 14790141.095929
4440.33; 68.378993; 14790210.702794
4441.35; 68.040861; 14790279.965454
4442.36; 67.57626; 14790348.75517
4443.38; 67.072863; 14790417.032451
4444.40; 66.640984; 14790484.870097
4445.42; 66.380866; 14790552.442953
4446.44; 66.35076; 14790619.985164
4447.45; 66.548196; 14790687.728356
4448.47; 66.912369; 14790755.84226
4449.49; 67.347696; 14790824.399309
4450.51; 67.760178; 14790893.376246
4451.53; 68.092675; 14790962.691651
4452.54; 68.344913; 14791032.263823
4453.56; 68.569439; 14791102.064553
4454.58; 68.844104; 14791172.14488
4455.60; 69.231412; 14791242.61947
4456.62; 69.741362; 14791313.613167
4457.63; 70.314356; 14791385.190146
4458.65; 70.833912; 14791457.296012
4459.67; 71.167487; 14791529.741443
4460.69; 71.221927; 14791602.242292
4461.70; 70.992604; 14791674.509699
4462.72; 70.585527; 14791746.36272
4463.74; 70.2001; 14791817.823392
4464.76; 70.074093; 14791889.155795
4465.78; 70.406863; 14791960.826944
4466.79; 71.286252; 14792033.393272
4467.81; 72.645222; 14792107.342973
4468.83; 74.26534; 14792182.941885
4469.85; 75.828678; 14792260.132206
4470.87; 77.003114; 14792338.518053
4471.88; 77.534323; 14792417.444648
4472.90; 77.315338; 14792496.148325
4473.92; 76.412249; 14792573.932698
4474.94; 75.03959; 14792650.319762
4475.96; 73.495657; 14792725.135169
4476.97; 72.080501; 14792798.510009
4477.99; 71.023292; 14792870.808655
4479.01; 70.440174; 14792942.513713
4480.03; 70.331331; 14793014.107972
4481.05; 70.611598; 14793085.987532
4482.06; 71.158105; 14793158.423413
4483.08; 71.85481; 14793231.568508
4484.10; 72.618088; 14793305.490588
4485.12; 73.397508; 14793380.206083
4486.14; 74.157103; 14793455.694814
4487.15; 74.850451; 14793531.889342
4488.17; 75.404666; 14793608.648038
4489.19; 75.72369; 14793685.731487
4490.21; 75.712271; 14793762.803311
4491.23; 75.312505; 14793839.468192
4492.24; 74.538559; 14793915.345228
4493.26; 73.494583; 14793990.159542
4494.28; 72.366052; 14794063.825061
4495.30; 71.383779; 14794136.490667
4496.32; 70.769429; 14794208.530892
4497.33; 70.678162; 14794280.478211
4498.35; 71.155639; 14794352.91158
4499.37; 72.122784; 14794426.329463
4500.39; 73.393493; 14794501.040871
4501.41; 74.720766; 14794577.103386
4502.42; 75.858504; 14794654.32407
4503.44; 76.621862; 14794732.321819
4504.46; 76.929894; 14794810.633132
4505.48; 76.819763; 14794888.832336
4506.49; 76.430202; 14794966.634984
4507.51; 75.960625; 14795043.959622
4508.53; 75.618594; 14795120.936088
4509.55; 75.570547; 14795197.863643
4510.57; 75.908248; 14795275.134965
4511.58; 76.63753; 14795353.148663
4512.60; 77.688507; 14795432.232211
4513.62; 78.940312; 14795512.590042
4514.64; 80.250247; 14795594.28133
4515.66; 81.478102; 14795677.222522
4516.67; 82.500353; 14795761.204321
4517.69; 83.214319; 14795845.912907
4518.71; 83.536843; 14795930.949808
4519.73; 83.403833; 14796015.851312
4520.75; 82.775564; 14796100.113264
4521.76; 81.648754; 14796183.228172
4522.78; 80.071892; 14796264.737902
4523.80; 78.157143; 14796344.298502
4524.82; 76.081834; 14796421.746526
4525.84; 74.075122; 14796497.151804
4526.85; 72.390033; 14796570.841733
4527.87; 71.265715; 14796643.387156
4528.89; 70.887899; 14796715.547978
4529.91; 71.35604; 14796788.185348
4530.93; 72.66377; 14796862.153929
4531.94; 74.695867; 14796938.191099
4532.96; 77.241604; 14797016.819718
4533.98; 80.021742; 14797098.278399
4535.00; 82.725217; 14797182.4891
4536.02; 85.051071; 14797269.06742
4537.03; 86.750866; 14797357.376058
4538.05; 87.666227; 14797446.616494
4539.07; 87.755487; 14797535.947794
4540.09; 87.103462; 14797624.615359
4541.11; 85.910028; 14797712.06806
4542.12; 84.456845; 14797798.041484
4543.14; 83.056677; 14797882.589598
4544.16; 81.994867; 14797966.056834
4545.18; 81.475679; 14798048.995559
4546.20; 81.58596; 14798132.046546
4547.21; 82.284524; 14798215.80864
4548.23; 83.418886; 14798300.725467
4549.25; 84.763758; 14798387.011315
4550.27; 86.070308; 14798474.627174
4551.29; 87.113577; 14798563.305037
4552.30; 87.727641; 14798652.60799
4553.32; 87.823158; 14798742.008174
4554.34; 87.387589; 14798830.964969
4555.36; 86.47262; 14798918.990365
4556.37; 85.174945; 14799005.694783
4557.39; 83.615681; 14799090.811938
4558.41; 81.92154; 14799174.20453
4559.43; 80.208837; 14799255.853665
4560.45; 78.570699; 14799335.835246
4561.46; 77.068319; 14799414.287469
4562.48; 75.72802; 14799491.375325
4563.50; 74.545959; 14799567.259894
4564.52; 73.500779; 14799642.080516
4565.54; 72.571621; 14799715.955294
4566.55; 71.755885; 14799788.999689
4567.57; 71.079706; 14799861.355763
4568.59; 70.595474; 14799933.218908
4569.61; 70.364964; 14800004.847405
4570.63; 70.432381; 14800076.54453
4571.64; 70.796443; 14800148.612253
4572.66; 71.392414; 14800221.28665
4573.68; 72.092473; 14800294.673676
4574.70; 72.726661; 14800368.706279
4575.72; 73.119145; 14800443.138414
4576.73; 73.128545; 14800517.580117
4577.75; 72.679226; 14800591.564433
4578.77; 71.77348; 14800664.626738
4579.79; 70.48137; 14800736.373731
4580.81; 68.913021; 14800806.524213
4581.82; 67.184073; 14800874.9147
4582.84; 65.386682; 14800941.475522
4583.86; 63.575327; 14801006.192461
4584.88; 61.770179; 14801069.071838
4585.90; 59.97373; 14801130.122507
4586.91; 58.191543; 14801189.358987
4587.93; 56.447249; 14801246.819851
4588.95; 54.78527; 14801302.588891
4589.97; 53.260551; 14801356.805834
4590.99; 51.920368; 14801409.658529
4592.00; 50.786565; 14801461.35706
4593.02; 49.846265; 14801512.098407
4594.04; 49.055414; 14801562.034702
4595.06; 48.354192; 14801611.257183
4596.08; 47.688547; 14801659.802065
4597.09; 47.029704; 14801707.676274
4598.11; 46.384304; 14801754.893494
4599.13; 45.791357; 14801801.50712
4600.15; 45.306934; 14801847.627624
4601.16; 44.981786; 14801893.417141
4602.18; 44.839293; 14801939.061607
4603.20; 44.860843; 14801984.728009
4604.22; 44.983116; 14802030.518879
4605.24; 45.108018; 14802076.436895
4606.25; 45.122259; 14802122.369408
4607.27; 44.921122; 14802168.097172
4608.29; 44.430195; 14802213.325193
4609.31; 43.619915; 14802257.728384
4610.33; 42.510007; 14802301.001737
4611.34; 41.163691; 14802342.904597
4612.36; 39.673956; 14802383.290973
4613.38; 38.145807; 14802422.121759
4614.40; 36.678737; 14802459.45913
4615.42; 35.353008; 14802495.446967
4616.43; 34.2218; 14802530.283283
4617.45; 33.309515; 14802564.190931
4618.47; 32.615037; 14802597.391631
4619.49; 32.117878; 14802630.086245
4620.51; 31.785115; 14802662.44212
4621.52; 31.577661; 14802694.586816
4622.54; 31.455341; 14802726.606995
4623.56; 31.381012; 14802758.551511
4624.58; 31.324265; 14802790.438262
4625.60; 31.264904; 14802822.264585
4626.61; 31.195753; 14802854.020515
4627.63; 31.123697; 14802885.703096
4628.65; 31.067754; 14802917.328729
4629.67; 31.053528; 14802948.93988
4630.69; 31.104634; 14802980.603055
4631.70; 31.232975; 14803012.396875
4632.72; 31.430706; 14803044.391978
4633.74; 31.666705; 14803076.627318
4634.76; 31.889298; 14803109.089246
4635.78; 32.035177; 14803141.699674
4636.79; 32.042464; 14803174.31752
4637.81; 31.864495; 14803206.754201
4638.83; 31.48064; 14803238.800134
4639.85; 30.901405; 14803270.256431
4640.87; 30.16681; 14803300.964942
4641.88; 29.33901; 14803330.830788
4642.90; 28.491505; 14803359.833911
4643.92; 27.697771; 14803388.029047
4644.94; 27.021627; 14803415.535897
4645.96; 26.510596; 14803442.52254
4646.97; 26.192395; 14803469.185268
4647.99; 26.074051; 14803495.727527
4649.01; 26.143053; 14803522.340027
4650.03; 26.370274; 14803549.183828
4651.04; 26.714741; 14803576.378282
4652.06; 27.130193; 14803603.995648
4653.08; 27.572821; 14803632.06359
4654.10; 28.008697; 14803660.575235
4655.12; 28.418749; 14803689.504295
4656.13; 28.799287; 14803718.820726
4657.15; 29.157132; 14803748.501428
4658.17; 29.50028; 14803778.531441
4659.19; 29.826907; 14803808.893945
4660.21; 30.116765; 14803839.551513
4661.22; 30.328807; 14803870.42493
4662.24; 30.40718; 14803901.378127
4663.26; 30.294989; 14803932.217119
4664.28; 29.952378; 14803962.707348
4665.30; 29.373612; 14803992.608417
4666.31; 28.597672; 14804021.719613
4667.33; 27.708517; 14804049.925689
4668.35; 26.824106; 14804077.231471
4669.37; 26.076416; 14804103.776138
4670.39; 25.587123; 14804129.822725
4671.40; 25.444498; 14804155.724126
4672.42; 25.686442; 14804181.871816
4673.44; 26.292811; 14804208.636763
4674.46; 27.188; 14804236.312973
4675.48; 28.252861; 14804265.073167
4676.49; 29.343734; 14804294.943822
4677.51; 30.315564; 14804325.803758
4678.53; 31.045705; 14804357.406946
4679.55; 31.454641; 14804389.426414
4680.57; 31.519827; 14804421.512238
4681.58; 31.279332; 14804453.353248
4682.60; 30.823452; 14804484.730192
4683.62; 30.274979; 14804515.548814
4684.64; 29.761894; 14804545.845138
4685.66; 29.388998; 14804575.761869
4686.67; 29.216085; 14804605.502583
4687.69; 29.249003; 14804635.276806
4688.71; 29.446296; 14804665.251864
4689.73; 29.739072; 14804695.524956
4690.75; 30.057169; 14804726.121857
4691.76; 30.352348; 14804757.019238
4692.78; 30.610303; 14804788.179205
4693.80; 30.847583; 14804819.580714
4694.82; 31.095427; 14804851.234517
4695.83; 31.377818; 14804883.175782
4696.85; 31.693391; 14804915.438286
4697.87; 32.009263; 14804948.022334
4698.89; 32.269778; 14804980.871576
4699.91; 32.416732; 14805013.87041
4700.92; 32.412575; 14805046.865013
4701.94; 32.256496; 14805079.700734
4702.96; 31.986123; 14805112.261227
4703.98; 31.66355; 14805144.493355
4705.00; 31.351136; 14805176.407458
4706.01; 31.087084; 14805208.052768
4707.03; 30.87117; 14805239.478287
4708.05; 30.666965; 14805270.695934
4709.07; 30.420073; 14805301.662256
4710.09; 30.085174; 14805332.287665
4711.10; 29.650852; 14805362.470953
4712.12; 29.151883; 14805392.146312
4713.14; 28.663626; 14805421.324646
4714.16; 28.280258; 14805450.112728
4715.18; 28.084944; 14805478.70199
4716.19; 28.123069; 14805507.33006
4717.21; 28.388175; 14805536.227998
4718.23; 28.825131; 14805565.570737
4719.25; 29.348331; 14805595.446072
4720.27; 29.867352; 14805625.849748
4721.28; 30.310322; 14805656.704348
4722.30; 30.637106; 14805687.891599
4723.32; 30.839122; 14805719.284495
4724.34; 30.928151; 14805750.768019
4725.36; 30.920491; 14805782.243744
4726.37; 30.823927; 14805813.621171
4727.39; 30.632878; 14805844.804119
4728.41; 30.333039; 14805875.681843
4729.43; 29.912631; 14805906.131611
4730.45; 29.374709; 14805936.033797
4731.46; 28.744839; 14805965.294802
4732.48; 28.070647; 14805993.86951
4733.50; 27.413131; 14806021.774895
4734.52; 26.832856; 14806049.089584
4735.54; 26.37592; 14806075.939132
4736.55; 26.064371; 14806102.471537
4737.57; 25.893851; 14806128.83036
4738.59; 25.838582; 14806155.132921
4739.61; 25.861295; 14806181.458603
4740.63; 25.924395; 14806207.848518
4741.64; 25.998663; 14806234.314036
4742.66; 26.067131; 14806260.84925
4743.68; 26.12368; 14806287.442029
4744.70; 26.16782; 14806314.07974
4745.71; 26.198274; 14806340.748453
4746.73; 26.208202; 14806367.427271
4747.75; 26.184074; 14806394.081529
4748.77; 26.108749; 14806420.659109
4749.79; 25.967625; 14806447.093031
4750.80; 25.755516; 14806473.311035
4751.82; 25.48145; 14806499.250051
4752.84; 25.169195; 14806524.871205
4753.86; 24.852779; 14806550.170262
4754.88; 24.568097; 14806575.179525
4755.89; 24.34331; 14806599.959964
4756.91; 24.191424; 14806624.58579
4757.93; 24.10788; 14806649.126571
4758.95; 24.074287; 14806673.633157
4759.97; 24.067167; 14806698.132494
4760.98; 24.0685; 14806722.633188
4762.00; 24.073953; 14806747.139434
4763.02; 24.095235; 14806771.667343
4764.04; 24.155063; 14806796.256155
4765.06; 24.276007; 14806820.968083
4766.07; 24.466978; 14806845.87441
4767.09; 24.712385; 14806871.030552
4768.11; 24.968434; 14806896.44734
4769.13; 25.168825; 14806922.068118
4770.15; 25.238995; 14806947.760326
4771.16; 25.115095; 14806973.326409
4772.18; 24.762183; 14806998.533243
4773.20; 24.186235; 14807023.153786
4774.22; 23.436366; 14807047.010995
4775.24; 22.596612; 14807070.013371
4776.25; 21.769522; 14807092.173805
4777.27; 21.05596; 14807113.607864
4778.29; 20.536121; 14807134.512749
4779.31; 20.256001; 14807155.132484
4780.33; 20.221705; 14807175.717307
4781.34; 20.4018; 14807196.485459
4782.36; 20.73612; 14807217.593934
4783.38; 21.148326; 14807239.122018
4784.40; 21.559316; 14807261.068471
4785.42; 21.899043; 14807283.360752
4786.43; 22.115124; 14807305.872994
4787.45; 22.177521; 14807328.448753
4788.47; 22.079326; 14807350.924554
4789.49; 21.83422; 14807373.150847
4790.50; 21.471527; 14807395.007935
4791.52; 21.02992; 14807416.415486
4792.54; 20.550857; 14807437.335373
4793.56; 20.072668; 14807457.768483
4794.58; 19.625955; 14807477.746857
4795.59; 19.230627; 14807497.322806
4796.61; 18.894592; 14807516.556685
4797.63; 18.613918; 14807535.50485
4798.65; 18.374251; 14807554.209045
4799.67; 18.153334; 14807572.688355
4800.68; 17.924571; 14807590.934795
4801.70; 17.661542; 14807608.913482
4802.72; 17.343149; 14807626.568059
4803.74; 16.958755; 14807643.83134
4804.76; 16.512263; 14807660.640111
4805.77; 16.023955; 14807676.951806
4806.79; 15.52911; 14807692.75977
4807.81; 15.073029; 14807708.103463
4808.83; 14.703035; 14807723.070518
4809.85; 14.458933; 14807737.789088
4810.86; 14.3641; 14807752.411122
4811.88; 14.419436; 14807767.089486
4812.90; 14.601871; 14807781.95356
4813.92; 14.86802; 14807797.088563
4814.94; 15.162289; 14807812.523118
4815.95; 15.427546; 14807828.227695
4816.97; 15.615851; 14807844.123957
4817.99; 15.696748; 14807860.102569
4819.01; 15.661345; 14807876.045143
4820.03; 15.521548; 14807891.845409
4821.04; 15.305062; 14807907.425303
4822.06; 15.047808; 14807922.743322
4823.08; 14.785869; 14807937.794699
4824.10; 14.549003; 14807952.604956
4825.12; 14.357077; 14807967.219841
4826.13; 14.219815; 14807981.694999
4827.15; 14.139234; 14807996.088128
4828.17; 14.113378; 14808010.454938
4829.19; 14.139695; 14808024.848537
4830.21; 14.216631; 14808039.320455
4831.22; 14.342763; 14808053.920768
4832.24; 14.513743; 14808068.695133
4833.26; 14.718286; 14808083.677713
4834.28; 14.934953; 14808098.880851
4835.30; 15.131549; 14808114.284114
4836.31; 15.268245; 14808129.826528
4837.33; 15.304493; 14808145.405842
4838.35; 15.208448; 14808160.887386
4839.37; 14.966564; 14808176.122703
4840.38; 14.590594; 14808190.975298
4841.40; 14.119536; 14808205.348377
4842.42; 13.615257; 14808219.208121
4843.44; 13.152142; 14808232.596434
4844.46; 12.802828; 14808245.62916
4845.47; 12.623287; 14808258.479122
4846.49; 12.640879; 14808271.346991
4847.51; 12.848367; 14808284.426074
4848.53; 13.205448; 14808297.86865
4849.55; 13.647423; 14808311.761138
4850.56; 14.098913; 14808326.113223
4851.58; 14.489304; 14808340.862709
4852.60; 14.766331; 14808355.894196
4853.62; 14.904816; 14808371.066656
4854.64; 14.908914; 14808386.243287
4855.65; 14.807838; 14808401.317027
4856.67; 14.646586; 14808416.226619
4857.69; 14.474187; 14808430.960717
4858.71; 14.332415; 14808445.550497
4859.73; 14.247487; 14808460.053823
4860.74; 14.226391; 14808474.535675
4861.76; 14.258196; 14808489.049904
4862.78; 14.319453; 14808503.626489
4863.80; 14.381805; 14808518.266546
4864.82; 14.419542; 14808532.945017
4865.83; 14.415018; 14808547.618883
4866.85; 14.36069; 14808562.237446
4867.87; 14.257726; 14808576.751196
4868.89; 14.11224; 14808591.116848
4869.91; 13.931017; 14808605.298022
4870.92; 13.718624; 14808619.262989
4871.94; 13.477127; 14808632.982123
4872.96; 13.208472; 14808646.427778
4873.98; 12.918277; 14808659.578027
4875.00; 12.619053; 14808672.423678
4876.01; 12.330864; 14808684.975965
4877.03; 12.078419; 14808697.271275
4878.05; 11.885097; 14808709.36979
4879.07; 11.765924; 14808721.346993
4880.09; 11.722314; 14808733.279803
4881.10; 11.741064; 14808745.2317
4882.12; 11.798639; 14808757.242205
4883.14; 11.869721; 14808769.325069
4884.16; 11.937093; 14808781.476515
4885.17; 11.999072; 14808793.691052
4886.19; 12.071267; 14808805.979081
4887.21; 12.181427; 14808818.379248
4888.23; 12.358721; 14808830.959893
4889.25; 12.621094; 14808843.807623
4890.26; 12.965315; 14808857.005754
4891.28; 13.363595; 14808870.609316
4892.30; 13.768386; 14808884.624939
4893.32; 14.12401; 14808899.002572
4894.34; 14.381281; 14808913.642095
4895.35; 14.510194; 14808928.412846
4896.37; 14.506546; 14808943.179884
4897.39; 14.390579; 14808957.828873
4898.41; 14.198685; 14808972.282522
4899.43; 13.971535; 14808986.504941
4900.44; 13.742986; 14809000.494708
4901.46; 13.533364; 14809014.271089
4902.48; 13.348694; 14809027.859483
4903.50; 13.185013; 14809041.281257
4904.52; 13.035106; 14809054.550433
4905.53; 12.894453; 14809067.676429
4906.55; 12.76407; 14809080.669702
4907.57; 12.649692; 14809093.546542
4908.59; 12.558524; 14809106.330578
4909.61; 12.49581; 14809119.050773
4910.62; 12.463321; 14809131.737896
4911.64; 12.460618; 14809144.422267
4912.66; 12.488324; 14809157.134842
4913.68; 12.551404; 14809169.911629
4914.70; 12.66014; 14809182.799105
4915.71; 12.827445; 14809195.856891
4916.73; 13.062781; 14809209.154239
4917.75; 13.364717; 14809222.758944
4918.77; 13.715161; 14809236.720386
4919.79; 14.078096; 14809251.05128
4920.80; 14.404272; 14809265.714208
4921.82; 14.641223; 14809280.618341
4922.84; 14.745974; 14809295.629107
4923.86; 14.696673; 14809310.589685
4924.88; 14.499513; 14809325.349564
4925.89; 14.188701; 14809339.793049
4926.91; 13.819327; 14809353.860527
4927.93; 13.455142; 14809367.557281
4928.95; 13.154648; 14809380.948145
4929.97; 12.95925; 14809394.140102
4930.98; 12.886328; 14809407.257828
4932.00; 12.928526; 14809420.41851
4933.02; 13.058683; 14809433.711685
4934.04; 13.238402; 14809447.187807
4935.05; 13.427569; 14809460.856493
4936.07; 13.592285; 14809474.692853
4937.09; 13.709583; 14809488.648617
4938.11; 13.768453; 14809502.664308
4939.13; 13.76784; 14809516.679375
4940.14; 13.712982; 14809530.638599
4941.16; 13.611644; 14809544.494665
4942.18; 13.471503; 14809558.208074
4943.20; 13.299293; 14809571.74618
4944.22; 13.101618; 14809585.083062
4945.23; 12.886776; 14809598.201244
4946.25; 12.666657; 14809611.095354
4947.27; 12.457775; 14809623.776832
4948.29; 12.280852; 14809636.278209
4949.31; 12.158757; 14809648.655299
4950.32; 12.113103; 14809660.985915
4951.34; 12.160156; 14809673.364429
4952.36; 12.306886; 14809685.892308
4953.38; 12.548056; 14809698.665688
4954.40; 12.865057; 14809711.761761
4955.41; 13.226952; 14809725.226227
4956.43; 13.593858; 14809739.064188
4957.45; 13.922348; 14809753.236537
4958.47; 14.17216; 14809767.663184
4959.49; 14.313117; 14809782.23332
4960.50; 14.330879; 14809796.821535
4961.52; 14.230163; 14809811.307227
4962.54; 14.03438; 14809825.59362
4963.56; 13.781314; 14809839.622403
4964.58; 13.515435; 14809853.380532
4965.59; 13.278412; 14809866.897382
4966.61; 13.100144; 14809880.232764
4967.63; 12.992752; 14809893.458825
4968.65; 12.949405; 14809906.64076
4969.67; 12.948551; 14809919.821825
4970.68; 12.962476; 14809933.017067
4971.70; 12.967616; 14809946.21754
4972.72; 12.953256; 14809959.403395
4973.74; 12.925562; 14809972.56106
4974.76; 12.90529; 14809985.698088
4975.77; 12.919652; 14809998.849737
4976.79; 12.990998; 14810012.074012
4977.81; 13.126297; 14810025.436016
4978.83; 13.311453; 14810038.9865
4979.84; 13.512978; 14810052.742128
4980.86; 13.687025; 14810066.674929
4981.88; 13.793074; 14810080.715683
4982.90; 13.807664; 14810094.771289
4983.92; 13.733278; 14810108.751173
4984.93; 13.598963; 14810122.594331
4985.95; 13.452107; 14810136.287995
4986.97; 13.3439; 14810149.871509
4987.99; 13.313377; 14810163.423952
4989.01; 13.375468; 14810177.039601
4990.02; 13.517124; 14810190.79945
4991.04; 13.702703; 14810204.748211
4992.06; 13.886469; 14810218.884037
4993.08; 14.027575; 14810233.163503
4994.10; 14.10215; 14810247.518884
4995.11; 14.108368; 14810261.880594
4996.13; 14.063122; 14810276.196245
4997.15; 13.992142; 14810290.439642
4998.17; 13.917739; 14810304.607299
