#Wavenumber (cm^-1); Spectrum (K*cm*km*mol^-1); Integral (K*km*mol^-1)
0.00; 15.966015; 16.252714194403
1.02; 16.864289; 33.419832584247
2.04; 19.473209; 53.242719471096
3.05; 23.555561; 77.221263868214
4.07; 28.778467; 106.51650193579
5.09; 34.788509; 141.92970253409
6.11; 41.285365; 183.95642250259
7.13; 48.074032; 232.89371260556
8.14; 55.082412; 288.96523064747
9.16; 62.341588; 352.42627690369
10.18; 69.937123; 423.61924994968
11.20; 77.947976; 502.96692638186
12.22; 86.392784; 590.91105264931
13.23; 95.200374; 687.82092550525
14.25; 104.21356; 793.90583728191
15.27; 113.22485; 909.16384589695
16.29; 122.03269; 1033.3878583977
17.31; 130.50078; 1166.2320214531
18.32; 138.60145; 1307.3223206157
19.34; 146.4291; 1456.3808297111
20.36; 154.1782; 1613.3275838096
21.38; 162.09107; 1778.3293032923
22.40; 170.38979; 1951.7787531661
23.41; 179.21137; 2134.2081938318
24.43; 188.56517; 2326.1593984574
25.45; 198.32472; 2528.045405397
26.47; 208.25663; 2740.0416664004
27.48; 218.07803; 2962.0356879052
28.50; 227.52582; 3193.6471569363
29.52; 236.41762; 3434.3100872082
30.54; 244.68712; 3683.3910126974
31.56; 252.38505; 3940.3080995811
32.57; 259.64742; 4204.6179714982
33.59; 266.64312; 4476.0491568448
34.61; 273.51844; 4754.4791301898
35.63; 280.35634; 5039.8697875884
36.65; 287.16165; 5332.1879591925
37.66; 293.8746; 5631.3396249458
38.68; 300.40486; 5937.1388048079
39.70; 306.67236; 6249.3180385687
40.72; 312.64034; 6567.5724118022
41.74; 318.33; 6891.6186152134
42.75; 323.81453; 7221.2478370986
43.77; 329.19728; 7556.3564607707
44.79; 334.58412; 7896.9486579678
45.81; 340.06048; 8243.1155518593
46.83; 345.67971; 8595.0025788192
47.84; 351.46418; 8952.7779508009
48.86; 357.41531; 9316.6113133397
49.88; 363.52637; 9686.6654677568
50.90; 369.79284; 10063.098624121
51.92; 376.21799; 10446.072306381
52.93; 382.81456; 10835.761013668
53.95; 389.60538; 11232.36247959
54.97; 396.6249; 11636.109511607
55.99; 403.92154; 12047.284214206
57.01; 411.55831; 12466.232813087
58.02; 419.60825; 12893.375900794
59.04; 428.14308; 13329.207083309
60.06; 437.21635; 13774.274459515
61.08; 446.84571; 14229.144109216
62.10; 457.00048; 14694.350873629
63.11; 467.59876; 15170.346233942
64.13; 478.51477; 15657.453618918
65.15; 489.5924; 16155.837550601
66.17; 500.65884; 16665.486648546
67.19; 511.53307; 17186.205242345
68.20; 522.02833; 17717.607558389
69.22; 531.95358; 18259.113351008
70.24; 541.12222; 18809.952415533
71.26; 549.37544; 19369.192907883
72.27; 556.6213; 19935.809370104
73.29; 562.88052; 20508.797445976
74.31; 568.32163; 21087.324345837
75.33; 573.26448; 21670.882850645
76.35; 578.13649; 22259.40085206
77.36; 583.38022; 22853.256745104
78.38; 589.32885; 23453.16808803
79.40; 596.08299; 24059.954845695
80.42; 603.42977; 24674.22030931
81.44; 610.83989; 25296.02896153
82.45; 617.55916; 25924.677538529
83.47; 622.78377; 26558.644542962
84.49; 625.88074; 27195.764123392
85.51; 626.59575; 27833.611553299
86.53; 625.18769; 28470.025640037
87.54; 622.444; 29103.646770514
88.56; 619.56094; 29734.333069622
89.58; 617.90936; 30363.338136531
90.60; 618.73939; 30993.188131534
91.62; 622.89642; 31627.26980545
92.63; 630.62078; 32269.21454218
93.65; 641.4829; 32922.216449183
94.67; 654.47164; 33588.440340017
95.69; 668.21387; 34268.653227848
96.71; 681.27022; 34962.156917681
97.72; 692.43403; 35667.024881735
98.74; 700.96197; 36380.573914697
99.76; 706.68528; 37099.949032539
100.78; 709.9831; 37822.681190547
101.80; 711.63457; 38547.094471371
102.81; 712.59491; 39272.485335139
103.83; 713.75489; 39999.057008313
104.85; 715.74076; 40727.650221002
105.87; 718.79535; 41459.352872198
106.89; 722.75643; 42195.087724574
107.90; 727.12407; 42935.268654575
108.92; 731.19027; 43679.588799149
109.94; 734.19569; 44426.968325344
110.96; 735.48039; 45175.655628224
111.98; 734.60377; 45923.450565235
112.99; 731.41986; 46668.004425612
114.01; 726.10437; 47407.147346025
115.03; 719.13566; 48139.196414917
116.05; 711.23557; 48863.203536594
117.07; 703.27754; 49579.109721886
118.08; 696.17142; 50287.78219084
119.10; 690.73804; 50990.923709074
120.12; 687.5897; 51690.860351108
121.14; 687.03544; 52390.232781004
122.15; 689.02784; 53091.633384812
123.17; 693.16201; 53797.242398015
124.19; 698.72742; 54508.516763617
125.21; 704.80218; 55225.974970814
126.23; 710.37146; 55949.102468009
127.24; 714.44958; 56676.381313664
128.26; 716.18933; 57405.431145845
129.28; 714.97102; 58133.240791298
130.30; 710.47238; 58856.471013778
131.32; 702.72463; 59571.814364755
132.33; 692.15696; 60276.400282068
133.35; 679.62149; 60968.22563618
134.37; 666.37902; 61646.570719539
135.39; 654.01853; 62312.333358282
136.41; 644.28869; 62968.191438154
137.42; 638.83886; 63618.501832354
138.44; 638.89909; 64268.8735351
139.46; 644.96217; 64925.417197082
140.48; 656.55432; 65593.761161109
141.50; 672.18032; 66278.011720119
142.51; 689.4994; 66979.892356149
143.53; 705.73141; 67698.296478869
144.55; 718.22482; 68429.418356983
145.57; 725.05872; 69167.496841843
146.59; 725.52247; 69906.047409584
147.60; 720.33322; 70639.315541381
148.62; 711.5123; 71363.60436045
149.64; 701.93327; 72078.14213962
150.66; 694.64802; 72785.263849271
151.68; 692.16486; 73489.857811738
152.69; 695.86949; 74198.222927601
153.71; 705.73979; 74916.635578
154.73; 720.41969; 75649.991738172
155.75; 737.61326; 76400.850212552
156.77; 754.67075; 77169.072470469
157.78; 769.19259; 77952.077331753
158.80; 779.48764; 78745.562109402
159.82; 784.78234; 79544.436666659
160.84; 785.16478; 80343.700526553
161.86; 781.33055; 81139.06131257
162.87; 774.24848; 81927.212854592
163.89; 764.86855; 82705.816032977
164.91; 753.95625; 83473.310959662
165.93; 742.07419; 84228.710467144
166.94; 729.67056; 84971.483605741
167.96; 717.19674; 85701.558942649
168.98; 705.17612; 86419.39780153
170.00; 694.17767; 87126.040709844
171.02; 684.69792; 87823.033648742
172.03; 676.99956; 88512.189989739
173.05; 670.97801; 89195.216647269
174.07; 666.1201; 89873.298164888
175.09; 661.58559; 90546.763743151
176.11; 656.39691; 91214.947477216
177.12; 649.68344; 91876.297180636
178.14; 640.90675; 92528.712594119
179.16; 630.00054; 93170.025956096
180.18; 617.38692; 93798.499202797
181.20; 603.87033; 94413.213140506
182.21; 590.44552; 95014.261197743
183.23; 578.07714; 95602.718780075
184.25; 567.50939; 96180.418850165
185.27; 559.14822; 96749.607611053
186.29; 553.03305; 97312.571394321
187.30; 548.88928; 97871.316998397
188.32; 546.23485; 98427.36050958
189.34; 544.50723; 98981.64537784
190.36; 543.18041; 99534.579591807
191.38; 541.85106; 100086.1605877
192.39; 540.28427; 100636.14665882
193.41; 538.4183; 101184.23325242
194.43; 536.33444; 101730.19856558
195.45; 534.20172; 102273.99286786
196.47; 532.20922; 102815.75888666
197.48; 530.50088; 103355.78589521
198.50; 529.12917; 103894.41655732
199.52; 528.0415; 104431.9400218
200.54; 527.10738; 104968.51258938
201.56; 526.18283; 105504.14400275
202.57; 525.19628; 106038.77114798
203.59; 524.22973; 106572.4143963
204.61; 523.56649; 107105.38248885
205.63; 523.68388; 107638.47008163
206.65; 525.1863; 108173.087076
207.66; 528.69396; 108711.2747118
208.68; 534.71984; 109255.59643238
209.70; 543.57358; 109808.93087593
210.72; 555.32296; 110374.22568193
211.74; 569.82409; 110954.28201579
212.75; 586.80693; 111551.62614506
213.77; 605.98352; 112168.49121689
214.79; 627.14013; 112806.892811
215.81; 650.18365; 113468.75170569
216.82; 675.13323; 114156.00819686
217.84; 702.07128; 114870.68646836
218.86; 731.08239; 115614.89679005
219.88; 762.20942; 116390.7930852
220.90; 795.44282; 117200.51955431
221.91; 830.73888; 118046.17588433
222.93; 868.04689; 118929.81016205
223.95; 907.32184; 119853.42463987
224.97; 948.50967; 120818.96655216
225.99; 991.51161; 121828.28258773
227.00; 1036.1496; 122883.03817421
228.02; 1082.157; 123984.62734147
229.04; 1129.2033; 125134.10761959
230.06; 1176.9339; 126332.17556111
231.08; 1224.9828; 127579.15521351
232.09; 1272.9112; 128874.92388413
233.11; 1320.0482; 130218.67603708
234.13; 1365.2604; 131608.4522304
235.15; 1406.7295; 133040.44220586
236.17; 1441.8561; 134508.18950348
237.18; 1467.3965; 136001.93584646
238.20; 1479.8853; 137508.39525218
239.22; 1476.297; 139011.20190919
240.24; 1454.801; 140492.12656195
241.26; 1415.396; 141932.93859364
242.27; 1360.2095; 143317.57313537
243.29; 1293.3252; 144634.12236842
244.31; 1220.1342; 145876.16637947
245.33; 1146.3549; 147043.10624074
246.35; 1076.9767; 148139.42202648
247.36; 1015.4148; 149173.07046604
248.38; 963.10067; 150153.46539298
249.40; 919.59493; 151089.57334677
250.42; 883.1468; 151988.57868334
251.44; 851.48907; 152855.35781234
252.45; 822.59929; 153692.72839069
253.47; 795.19501; 154502.20259219
254.49; 768.84451; 155284.85312944
255.51; 743.72233; 156041.93036931
256.53; 720.16413; 156775.02637438
257.54; 698.23471; 157485.79917684
258.56; 677.49702; 158175.46190712
259.58; 657.0743; 158844.33519175
260.60; 635.97177; 159491.72701434
261.61; 613.51804; 160116.26190442
262.63; 589.73943; 160716.59120013
263.65; 565.50823; 161292.2541712
264.67; 542.39419; 161844.38805025
265.69; 522.2626; 162376.02884162
266.70; 506.75631; 162891.88489272
267.72; 496.84044; 163397.64702419
268.74; 492.56272; 163899.0546198
269.76; 493.10192; 164401.01110074
270.78; 497.0746; 164907.01159414
271.79; 502.98276; 165419.02633883
272.81; 509.6445; 165937.82244794
273.83; 516.4666; 166463.56316478
274.85; 523.48352; 166996.44679916
275.87; 531.17423; 167537.15924335
276.88; 540.14498; 168087.00352661
277.90; 550.80563; 168647.69988462
278.92; 563.15928; 169220.97172795
279.94; 576.7762; 169808.10500814
280.96; 590.95325; 170409.66991554
281.97; 604.99593; 171025.52966474
282.99; 618.52144; 171655.15780305
284.01; 631.67869; 172298.17945129
285.03; 645.21083; 172954.97623594
286.05; 660.33521; 173627.16898777
287.06; 678.46673; 174317.81884099
288.08; 700.8499; 175031.25379471
289.10; 728.18417; 175772.51385742
290.12; 760.32593; 176546.49284547
291.14; 796.13362; 177356.92251107
292.15; 833.49525; 178205.38471097
293.17; 869.54553; 179090.54454107
294.19; 901.04546; 180007.76993759
295.21; 924.86504; 180949.24263523
296.23; 938.48308; 181904.57791837
297.24; 940.405; 182861.86962434
298.26; 930.40615; 183808.98293622
299.28; 909.53968; 184734.85508619
300.30; 879.89911; 185630.55440933
301.32; 844.18734; 186489.9006929
302.33; 805.19637; 187309.55585358
303.35; 765.32784; 188088.62657195
304.37; 726.27288; 188827.94102779
305.39; 688.92093; 189529.23280428
306.41; 653.49616; 190194.4636931
307.42; 619.8507; 190825.4449536
308.44; 587.79962; 191423.79959818
309.46; 557.37974; 191991.18812235
310.48; 528.95217; 192529.63860219
311.49; 503.1323; 193041.80557458
312.51; 480.59622; 193531.03178957
313.53; 461.85398; 194001.17920829
314.55; 447.08487; 194456.29231351
315.57; 436.09739; 194900.22064253
316.58; 428.42282; 195336.3365849
317.60; 423.49865; 195767.43993699
318.62; 420.86681; 196195.86418667
319.64; 420.31141; 196623.72306722
320.66; 421.88947; 197053.18834481
321.67; 425.85036; 197486.68563874
322.69; 432.47908; 197926.93067589
323.71; 441.91967; 198376.7858343
324.73; 454.03428; 198838.97314011
325.75; 468.33387; 199315.71680903
326.76; 483.99085; 199808.39861296
327.78; 499.92104; 200317.2966548
328.80; 514.91021; 200841.45302655
329.82; 527.75908; 201378.68899571
330.84; 537.42454; 201925.76399109
331.85; 543.14036; 202478.65743716
332.87; 544.50319; 203032.93819114
333.89; 541.51165; 203584.17368833
334.91; 534.54951; 204128.32202619
335.93; 524.31298; 204662.0500184
336.94; 511.69463; 205182.93306689
337.96; 497.64911; 205689.51838247
338.98; 483.0723; 206181.26513719
340.00; 468.72062; 206658.40249837
341.02; 455.18233; 207121.75847336
342.03; 442.89291; 207572.60434354
343.05; 432.17079; 208012.53555782
344.07; 423.24669; 208443.38242608
345.09; 416.26972; 208867.12703864
346.11; 411.29299; 209285.80554977
347.12; 408.25922; 209701.39582318
348.14; 407.01286; 210115.71735217
349.16; 407.35403; 210530.38618051
350.18; 409.12616; 210946.85895441
351.20; 412.30307; 211366.56569147
352.21; 417.02907; 211791.0832915
353.23; 423.57478; 212222.26414416
354.25; 432.20389; 212662.22905131
355.27; 442.98821; 213113.17192903
356.28; 455.64329; 213576.99713975
357.30; 469.46513; 214054.89238302
358.32; 483.42261; 214546.99573738
359.34; 496.40595; 215052.31557141
360.36; 507.56718; 215568.99706277
361.37; 516.64107; 216094.91537529
362.39; 524.12439; 216628.45138472
363.41; 531.22716; 217169.21771264
364.43; 539.5807; 217718.4875813
365.45; 550.7711; 218279.1487966
366.46; 565.83211; 218855.14146741
367.48; 584.85374; 219450.49734152
368.50; 606.83354; 220068.22770161
369.52; 629.82455; 220709.36191835
370.54; 651.34338; 221372.4013705
371.55; 668.92307; 222053.33618822
372.57; 680.65534; 222746.21395525
373.59; 685.57604; 223444.10077979
374.61; 683.80113; 224140.18082725
375.63; 676.3981; 224828.72490344
376.64; 665.05239; 225505.7195377
377.66; 651.63833; 226169.05924192
378.68; 637.81524; 226818.32762962
379.70; 624.74461; 227454.29068037
380.72; 612.97581; 228078.27360851
381.73; 602.49393; 228691.58643062
382.75; 592.88205; 229295.11477014
383.77; 583.53127; 229889.12442504
384.79; 573.83585; 230473.26455983
385.81; 563.33179; 231046.71201094
386.82; 551.76426; 231608.38421841
387.84; 539.09198; 232157.15659575
388.86; 525.44945; 232692.04146073
389.88; 511.08985; 233212.30887512
390.90; 496.32591; 233717.54723062
391.91; 481.47773; 234207.67078733
392.93; 466.83108; 234682.88467894
393.95; 452.60704; 235143.61911001
394.97; 438.94547; 235590.44665291
395.99; 425.90557; 236024.00014867
397.00; 413.48647; 236444.9115278
398.02; 401.66636; 236853.7905535
399.04; 390.45286; 237251.25471302
400.06; 379.93055; 237638.00761469
401.07; 370.28993; 238014.94678629
402.09; 361.82426; 238383.26826578
403.11; 354.88932; 238744.53027474
404.13; 349.83246; 239100.6446222
405.15; 346.9075; 239453.78148947
406.16; 346.19813; 239806.19624287
407.18; 347.57143; 240160.00896487
408.20; 350.67574; 240516.98174083
409.22; 354.98512; 240878.34127771
410.24; 359.88148; 241244.68509076
411.25; 364.75704; 241615.9920193
412.27; 369.11784; 241991.73805328
413.29; 372.67173; 242371.10179417
414.31; 375.39058; 242753.23320367
415.33; 377.54145; 243137.554104
416.34; 379.68418; 243524.05621401
417.36; 382.63207; 243913.55915271
418.38; 387.37081; 244307.88591812
419.40; 394.93202; 244709.90966898
420.42; 406.22494; 245123.42912573
421.43; 421.84284; 245552.84692895
422.45; 441.87719; 246002.65884367
423.47; 465.78532; 246476.80819696
424.49; 492.35892; 246978.00833534
425.51; 519.82726; 247507.17005899
426.52; 546.09876; 248063.07503156
427.54; 569.10649; 248642.40088025
428.56; 587.18679; 249240.13169514
429.58; 599.39966; 249850.2946834
430.60; 605.70407; 250466.87528693
431.61; 606.93274; 251084.7066283
432.63; 604.56227; 251700.12493339
433.65; 600.33092; 252311.23590931
434.67; 595.80078; 252917.7353926
435.69; 591.9782; 253520.34365854
436.70; 589.09112; 254120.01299478
437.72; 586.57729; 254717.12336103
438.74; 583.27875; 255310.87596031
439.76; 577.78163; 255899.03272286
440.78; 568.80477; 256478.05143241
441.79; 555.53458; 257043.56166283
442.81; 537.82637; 257591.04569526
443.83; 516.23574; 258116.55139932
444.85; 491.89173; 258617.27595328
445.87; 466.26203; 259091.9105752
446.88; 440.88005; 259540.7074457
447.90; 417.10124; 259965.29850876
448.92; 395.93603; 260368.3443043
449.94; 377.97938; 260753.11100586
450.95; 363.42972; 261123.06677375
451.97; 352.17217; 261481.56284504
452.99; 343.89356; 261831.6316494
454.01; 338.19879; 262175.90342753
455.03; 334.70654; 262516.62023794
456.04; 333.11171; 262855.71357954
457.06; 333.21098; 263194.90797966
458.08; 334.89405; 263535.81567132
459.10; 338.10819; 263879.99522331
460.12; 342.80784; 264228.95880765
461.13; 348.90396; 264584.12798516
462.15; 356.23014; 264946.75489121
463.17; 364.54047; 265317.84135901
464.19; 373.54915; 265698.09827928
465.21; 383.01069; 266087.9866389
466.22; 392.82667; 266487.86724116
467.24; 403.15225; 266898.25883818
468.26; 414.46851; 267320.16989171
469.28; 427.58939; 267755.43744105
470.30; 443.58689; 268206.98974987
471.31; 463.64263; 268678.95794251
472.33; 488.86352; 269176.59991185
473.35; 520.12211; 269706.06177276
474.37; 557.99016; 270274.07167626
475.39; 602.81725; 270887.7136206
476.40; 654.96487; 271554.43959873
477.42; 715.14829; 272282.42969526
478.44; 784.77929; 273081.30114975
479.46; 866.16543; 273963.020185
480.48; 962.4232; 274942.72547484
481.49; 1077.015; 276039.08030053
482.51; 1212.9164; 277273.77681281
483.53; 1371.5376; 278669.94290745
484.55; 1551.6325; 280249.43785113
485.57; 1748.4827; 282029.31782623
486.58; 1953.632; 284018.03094749
487.60; 2155.3464; 286212.08057636
488.62; 2339.8159; 288593.91216176
489.64; 2492.9316; 291131.60899082
490.66; 2602.3154; 293780.65375591
491.67; 2659.1951; 296487.59962259
492.69; 2659.7372; 299195.09734297
493.71; 2605.5585; 301847.44342916
494.73; 2503.3232; 304395.71839315
495.74; 2363.5343; 306801.69435129
496.76; 2198.797; 309039.97477363
497.78; 2021.9276; 311098.20985773
498.80; 1844.2855; 312975.61287798
499.82; 1674.6132; 314680.2968276
500.83; 1518.5327; 316226.09761785
501.85; 1378.6791; 317629.53348193
502.87; 1255.3206; 318907.39570889
503.89; 1147.2331; 320075.22953615
504.91; 1052.5836; 321146.71417511
505.92; 969.62325; 322133.74880538
506.94; 897.07932; 323046.93684619
507.96; 834.22877; 323896.1457344
508.98; 780.72404; 324690.88911517
510.00; 736.289; 325440.39954906
511.01; 700.41528; 326153.39208092
512.03; 672.16383; 326837.62584992
513.05; 650.12826; 327499.42836622
514.07; 632.56054; 328143.34769952
515.09; 617.612; 328772.05006808
516.10; 603.61494; 329386.50402856
517.12; 589.3257; 329986.41215604
518.14; 574.06834; 330570.78895537
519.16; 557.74979; 331138.55417853
520.18; 540.75328; 331689.01768788
521.19; 523.74687; 332222.16940124
522.21; 507.46072; 332738.74251842
523.23; 492.48829; 333240.07434363
524.25; 479.1541; 333727.83254332
525.27; 467.46978; 334203.69661224
526.28; 457.17611; 334669.08216695
527.30; 447.84896; 335124.97308
528.32; 439.03466; 335571.89141618
529.34; 430.37788; 336009.99752967
530.36; 421.71162; 336439.28176594
531.37; 413.09188; 336859.79147863
532.39; 404.77504; 337271.83499897
533.41; 397.14948; 337676.11603621
534.43; 390.64193; 338073.77266507
535.45; 385.62079; 338466.31798654
536.46; 382.3157; 338855.49886783
537.48; 380.76536; 339243.10157716
538.50; 380.79906; 339630.73858706
539.52; 382.05263; 340019.65167848
540.54; 384.01797; 340410.5654043
541.55; 386.12373; 340803.62270014
542.57; 387.8416; 341198.42870843
543.59; 388.80513; 341594.21555478
544.61; 388.91764; 341990.11692884
545.62; 388.4171; 342385.50877674
546.64; 387.86633; 342780.33996641
547.66; 388.05037; 343175.35849613
548.68; 389.79065; 343572.14855307
549.70; 393.71915; 343972.93766223
550.71; 400.08187; 344380.20374201
551.73; 408.64537; 344796.18709886
552.75; 418.75563; 345222.46226485
553.77; 429.54776; 345659.72334742
554.79; 440.24704; 346107.87583882
555.80; 450.45961; 346566.4242805
556.82; 460.34699; 347035.03765359
557.84; 470.62125; 347514.10977769
558.86; 482.37288; 348005.14455914
559.88; 496.8227; 348510.88862787
560.89; 515.1328; 349035.27159106
561.91; 538.39413; 349583.33358377
562.93; 567.82496; 350161.35488799
563.95; 605.09461; 350777.31509504
564.97; 652.5796; 351441.61296881
565.98; 713.31933; 352167.7412625
567.00; 790.50002; 352972.43616783
568.02; 886.45296; 353874.807029
569.04; 1001.3604; 354894.14870334
570.06; 1132.043; 356046.51962719
571.07; 1271.2801; 357340.62793412
572.09; 1408.0403; 358773.95218607
573.11; 1528.7784; 360330.18265253
574.13; 1619.6471; 361978.91354121
575.15; 1669.1674; 363678.05390385
576.16; 1670.7114; 365378.76601098
577.18; 1624.1378; 367032.0682032
578.20; 1536.1022; 368595.75391676
579.22; 1418.899; 370040.13183674
580.24; 1288.0785; 371351.3401323
581.25; 1159.4125; 372531.57207717
582.27; 1045.9601; 373596.31432237
583.29; 955.95238; 374569.43259672
584.31; 891.989; 375477.43891155
585.33; 851.66731; 376344.39948471
586.34; 829.36557; 377188.65784349
587.36; 818.57794; 378021.93486558
588.38; 814.05639; 378850.60914514
589.40; 813.10376; 379678.31368956
590.41; 815.67289; 380508.63349185
591.43; 823.37563; 381346.794354
592.45; 837.9549; 382199.79627983
593.47; 860.05983; 383075.30007509
594.49; 889.15586; 383980.42237033
595.50; 925.04397; 384922.07721899
596.52; 970.8239; 385910.33405903
597.54; 1036.4011; 386965.34563151
598.56; 1141.0744; 388126.91013037
599.58; 1313.6115; 389464.10997618
600.59; 1588.6753; 391081.31287409
601.61; 1999.4744; 393116.69151942
602.63; 2567.8228; 395730.62434179
603.65; 3293.9949; 399083.76901754
604.67; 4149.4039; 403307.68312011
605.68; 5074.8881; 408473.70018655
606.70; 5986.1955; 414567.38892734
607.72; 6786.3782; 421475.62905173
608.74; 7382.7728; 428990.97315167
609.76; 7704.7062; 436834.0315503
610.77; 7717.5527; 444690.16718863
611.79; 7429.5336; 452253.11182235
612.81; 6889.5035; 459266.32908307
613.83; 6176.3801; 465553.61746681
614.85; 5383.0942; 471033.37506147
615.86; 4599.2793; 475715.2429587
616.88; 3896.982; 479682.20245244
617.90; 3322.4811; 483064.34484597
618.92; 2895.2946; 486011.62984266
619.94; 2613.3104; 488671.86706663
620.95; 2461.4; 491177.46601638
621.97; 2420.3074; 493641.23449667
622.99; 2473.1253; 496158.76929843
624.01; 2607.9688; 498813.5689816
625.03; 2816.9946; 501681.14790704
626.04; 3093.1223; 504829.8129053
627.06; 3426.3311; 508317.67010813
628.08; 3801.156; 512187.08284123
629.10; 4196.2229; 516458.65669517
630.12; 4585.7399; 521126.7420395
631.13; 4942.1784; 526157.66635068
632.15; 5239.167; 531490.91226595
633.17; 5453.8567; 537042.70304602
634.19; 5568.499; 542711.19476422
635.21; 5571.4244; 548382.66434386
636.22; 5457.7905; 553938.45951345
637.24; 5230.3339; 559262.71369546
638.26; 4900.0123; 564250.71480822
639.28; 4486.0946; 568817.36551558
640.29; 4015.1479; 572904.61278364
641.31; 3518.5891; 576486.38466945
642.33; 3028.9385; 579569.71334828
643.35; 2575.4452; 582191.40539508
644.37; 2180.1074; 584410.66061874
645.38; 1855.1116; 586299.08422133
646.40; 1602.347; 587930.20433319
647.42; 1415.039; 589370.65300138
648.44; 1280.9275; 590674.58193174
649.46; 1186.0066; 591881.88544062
650.47; 1117.7911; 593019.74850749
651.49; 1067.3587; 594106.27364769
652.51; 1029.9047; 595154.67216908
653.53; 1004.0356; 596176.73705634
654.55; 990.35428; 597184.87497479
655.56; 989.95951; 598192.61103683
656.58; 1003.3423; 599213.97024908
657.60; 1029.9084; 600262.37260532
658.62; 1068.1174; 601349.67006901
659.64; 1116.0899; 602485.80142559
660.65; 1172.4972; 603679.3529867
661.67; 1237.5706; 604939.14642053
662.69; 1314.0758; 606276.81886414
663.71; 1408.0642; 607710.16746849
664.73; 1529.1467; 609266.77278516
665.74; 1690.0103; 610987.13036918
666.76; 1904.9776; 612926.31536562
667.78; 2187.6175; 615153.21558377
668.80; 2547.7207; 617746.68529136
669.82; 2988.2337; 620788.57825123
670.83; 3502.8929; 624354.37211584
671.85; 4075.2194; 628502.76962287
672.87; 4679.2342; 633266.02813876
673.89; 5281.8225; 638642.6955633
674.91; 5846.2621; 644593.93809915
675.92; 6336.1862; 651043.90222953
676.94; 6719.2479; 657883.80663598
677.96; 6969.9684; 664978.93374373
678.98; 7071.5795; 672177.49652832
680.00; 7016.9575; 679320.4564535
681.01; 6808.8856; 686251.60815404
682.03; 6459.8318; 692827.43812268
683.05; 5991.2614; 698926.28370031
684.07; 5432.3343; 704456.16556576
685.08; 4817.7879; 709360.46571253
686.10; 4184.9433; 713620.55738387
687.12; 3570.0473; 717254.71146594
688.14; 3004.473; 720313.13531729
689.16; 2511.4942; 722869.72802258
690.17; 2104.3208; 725011.83582074
691.19; 1785.8171; 726829.72055451
692.21; 1549.9018; 728407.45372466
693.23; 1384.2019; 729816.51157175
694.25; 1273.2452; 731112.62020979
695.26; 1201.4326; 732335.62675205
696.28; 1155.2219; 733511.59281354
697.30; 1124.2857; 734656.06712128
698.32; 1101.7484; 735777.59945522
699.34; 1083.8257; 736880.88726876
700.35; 1069.2293; 737969.3165328
701.37; 1058.5855; 739046.91090405
702.39; 1053.9327; 740119.76895021
703.41; 1058.2156; 741196.98675763
704.43; 1074.6626; 742290.94688804
705.44; 1106.0201; 743416.82759097
706.46; 1153.7685; 744591.3141631
707.48; 1217.5716; 745830.74947414
708.50; 1295.2241; 747149.2317626
709.52; 1383.2413; 748557.311741
710.53; 1477.9996; 750061.85154559
711.55; 1577.0995; 751667.27083129
712.57; 1680.4683; 753377.91508187
713.59; 1790.7411; 755200.81229589
714.61; 1912.6678; 757147.82556097
715.62; 2051.6228; 759236.28904778
716.64; 2211.6423; 761487.64547976
717.66; 2393.6371; 763924.26477347
718.68; 2594.4465; 766565.29936851
719.70; 2807.1716; 769422.87894698
720.71; 3022.8232; 772499.9825699
721.73; 3232.8615; 775790.89606866
722.75; 3431.8506; 779284.37190937
723.77; 3619.3338; 782968.69757081
724.79; 3800.2116; 786837.1490432
725.80; 3983.3463; 790892.02367564
726.82; 4178.6854; 795145.74513885
727.84; 4393.7161; 799618.35857741
728.86; 4630.3431; 804331.84801917
729.88; 4883.2219; 809302.75720379
730.89; 5140.1659; 814535.22424197
731.91; 5384.602; 820016.51670655
732.93; 5599.39; 825716.45411037
733.95; 5770.8561; 831590.93659718
734.96; 5891.8034; 837588.5381994
735.98; 5962.5825; 843658.18992579
737.00; 5989.9385; 849755.68885657
738.02; 5984.0788; 855847.22284052
739.04; 5954.9819; 861909.13745745
740.05; 5909.1826; 867924.43036574
741.07; 5848.0587; 873877.50179126
742.09; 5768.0879; 879749.16636797
743.11; 5662.8458; 885513.69906627
744.13; 5525.9354; 891138.86288833
745.14; 5353.7732; 896588.77301597
746.16; 5147.2948; 901828.49700162
747.18; 4912.1032; 906828.80604224
748.20; 4657.1821; 911569.61641813
749.22; 4392.7968; 916041.29403691
750.23; 4128.4265; 920243.85402575
751.25; 3871.4486; 924184.82166803
752.27; 3626.9067; 927876.85616245
753.29; 3398.202; 931336.07918573
754.31; 3188.1784; 934581.50718586
755.32; 2999.9447; 937635.32142398
756.34; 2836.9574; 940523.22167204
757.36; 2702.2645; 943274.0103162
758.38; 2597.2367; 945917.88521789
759.40; 2520.3971; 948483.5406959
760.41; 2466.9824; 950994.82230102
761.43; 2429.6224; 953468.07304353
762.45; 2400.0913; 955911.26244234
763.47; 2371.64; 958325.48959431
764.49; 2341.1296; 960708.6584986
765.50; 2310.1766; 963060.31859538
766.52; 2284.7988; 965386.14519412
767.54; 2273.5429; 967700.51380912
768.56; 2284.606; 970026.14414143
769.58; 2322.8558; 972390.71114026
770.59; 2387.7661; 974821.35403351
771.61; 2473.0538; 977338.81608267
772.63; 2568.2965; 979953.23108448
773.65; 2662.1689; 982663.20411507
774.67; 2746.3665; 985458.88665088
775.68; 2818.9813; 988328.48796172
776.70; 2886.1695; 991266.48399748
777.72; 2961.411; 994281.0726039
778.74; 3062.3823; 997398.44567159
779.75; 3206.2307; 1000662.250129
780.77; 3404.5991; 1004127.9850742
781.79; 3659.92; 1007853.6257054
782.81; 3964.1799; 1011888.9897908
783.83; 4300.6426; 1016266.8583811
784.84; 4648.1107; 1020998.4345306
785.86; 4986.4935; 1026074.4697395
786.88; 5302.0031; 1031471.6801402
787.90; 5590.3828; 1037162.4486057
788.92; 5857.1666; 1043124.7914882
789.93; 6114.9054; 1049349.5013533
790.95; 6378.2627; 1055842.2975769
791.97; 6658.574; 1062620.4386206
792.99; 6959.6396; 1069705.0514006
794.01; 7276.1191; 1077111.8266789
795.02; 7595.0452; 1084843.2549856
796.04; 7899.9435; 1092885.0565578
797.06; 8176.1797; 1101208.054696
798.08; 8415.7344; 1109774.9091418
799.10; 8619.7699; 1118549.4629249
800.11; 8798.0628; 1127505.5112437
801.13; 8965.394; 1136631.8954861
802.15; 9135.9989; 1145931.9481462
803.17; 9317.8548; 1155417.122203
804.19; 9508.6942; 1165096.5625984
805.20; 9695.1439; 1174965.8006841
806.22; 9855.4309; 1184998.2040252
807.24; 9964.977; 1195142.1205832
808.26; 10003.256; 1205325.0035636
809.28; 9959.8346; 1215463.6853589
810.29; 9837.7015; 1225478.0410097
811.31; 9652.7815; 1235304.1560919
812.33; 9429.682; 1244903.1654121
813.35; 9194.8907; 1254263.1673531
814.37; 8969.4462; 1263393.6764967
815.38; 8763.2806; 1272314.3179574
816.40; 8572.9257; 1281041.1863723
817.42; 8383.2248; 1289574.9474226
818.44; 8172.4503; 1297894.1491926
819.46; 7919.1929; 1305955.5458681
820.47; 7608.8938; 1313701.0714605
821.49; 7238.1007; 1321069.1456485
822.51; 6815.3414; 1328006.8690697
823.53; 6358.6434; 1334479.6936701
824.55; 5890.7801; 1340476.2536198
825.56; 5433.9401; 1346007.7701565
826.58; 5005.5116; 1351103.1649305
827.60; 4616.0864; 1355802.1417294
828.62; 4269.8785; 1360148.693756
829.63; 3966.8694; 1364186.7956384
830.65; 3705.4746; 1367958.8088544
831.67; 3484.5199; 1371505.8997048
832.69; 3303.8013; 1374869.0269136
833.71; 3163.2245; 1378089.0529918
834.72; 3061.1792; 1381205.2013581
835.74; 2993.1305; 1384252.0790761
836.76; 2951.28; 1387256.3547206
837.78; 2925.6514; 1390234.5415621
838.80; 2906.3084; 1393193.038133
839.81; 2885.8942; 1396130.7539439
840.83; 2861.5084; 1399043.646051
841.85; 2835.1682; 1401929.7248967
842.87; 2812.631; 1404792.8618622
843.89; 2800.9699; 1407644.1283149
844.90; 2805.7418; 1410500.2523715
845.92; 2828.7152; 1413379.7623636
846.94; 2866.8901; 1416298.1327232
847.96; 2913.065; 1419263.507145
848.98; 2957.6729; 1422274.2904897
849.99; 2991.216; 1425319.2192911
851.01; 3006.5044; 1428379.7110059
852.03; 3000.0551; 1431433.6376827
853.05; 2972.352; 1434459.3638015
854.07; 2927.0537; 1437438.9781581
855.08; 2869.538; 1440360.0440061
856.10; 2805.2968; 1443215.7151348
857.12; 2738.6431; 1446003.5356251
858.14; 2672.014; 1448723.5305858
859.16; 2605.9365; 1451376.2615199
860.17; 2539.5332; 1453961.3966862
861.19; 2471.3373; 1456477.1113973
862.21; 2400.1591; 1458920.3698056
863.23; 2325.7798; 1461287.9132512
864.25; 2249.3237; 1463577.6276829
865.26; 2173.2457; 1465789.8980366
866.28; 2100.9561; 1467928.5806506
867.30; 2036.1825; 1470001.3265731
868.32; 1982.2284; 1472019.1495841
869.34; 1941.3109; 1473995.3202851
870.35; 1914.145; 1475943.8373192
871.37; 1899.879; 1477877.8321263
872.39; 1896.3866; 1479808.2718576
873.41; 1900.8273; 1481743.2320562
874.42; 1910.3111; 1483687.8463184
875.44; 1922.4911; 1485644.8592545
876.46; 1935.9479; 1487615.5706983
877.48; 1950.3106; 1489600.9027381
878.50; 1966.1428; 1491602.3512336
879.51; 1984.6803; 1493622.6701423
880.53; 2007.5139; 1495666.2326145
881.55; 2036.2788; 1497739.0765796
882.57; 2072.3704; 1499848.6602564
883.59; 2116.6732; 1502003.3421958
884.60; 2169.3016; 1504211.5976095
885.62; 2229.3891; 1506481.0195429
886.64; 2295.0039; 1508817.2345013
887.66; 2363.2852; 1511222.9569032
888.68; 2430.8541; 1513697.4614517
889.69; 2494.4633; 1516236.7174468
890.71; 2551.749; 1518834.2878195
891.73; 2601.8718; 1521482.881039
892.75; 2645.8384; 1524176.2303913
893.77; 2686.3793; 1526910.8486064
894.78; 2727.4012; 1529687.2252905
895.80; 2773.179; 1532510.2018533
896.82; 2827.5378; 1535388.5133419
897.84; 2893.2633; 1538333.7305718
898.86; 2971.8801; 1541358.9762216
899.87; 3063.7873; 1544477.779487
900.89; 3168.6195; 1547703.2973749
901.91; 3285.6465; 1551047.943688
902.93; 3414.0717; 1554523.3213067
903.95; 3553.184; 1558140.3092984
904.96; 3702.418; 1561909.2110339
905.98; 3861.4121; 1565839.9619615
907.00; 4030.1148; 1569942.4449086
908.02; 4208.8945; 1574226.9178797
909.04; 4398.543; 1578704.4448344
910.05; 4600.0738; 1583387.1215102
911.07; 4814.3423; 1588287.9142715
912.09; 5041.6916; 1593420.1387517
913.11; 5281.9628; 1598796.9489812
914.13; 5535.1834; 1604431.5267838
915.14; 5803.0122; 1610338.7428323
916.16; 6090.6345; 1616538.7459582
917.18; 6408.4051; 1623062.225841
918.20; 6772.3546; 1629956.1906146
919.22; 7202.8344; 1637288.3652663
920.23; 7721.1134; 1645148.1255269
921.25; 8344.4869; 1653642.4530951
922.27; 9081.138; 1662886.6596686
923.29; 9926.2977; 1672991.2023832
924.30; 10861.012; 1684047.244287
925.32; 11854.08; 1696114.1857225
926.34; 12866.731; 1709211.9622166
927.36; 13858.801; 1723319.6235524
928.38; 14794.785; 1738380.076553
929.39; 15648.452; 1754309.5252122
930.41; 16405.443; 1771009.5578704
931.43; 17064.137; 1788380.1130507
932.45; 17635.58; 1806332.3721645
933.47; 18143.213; 1824801.3799064
934.48; 18622.547; 1843758.3295475
935.50; 19120.112; 1863221.7787368
936.52; 19690.542; 1883265.9008991
937.54; 20390.891; 1904022.9476382
938.56; 21272.246; 1925677.1758125
939.57; 22370.116; 1948448.9880907
940.59; 23696.195; 1972570.6923295
941.61; 25234.365; 1998258.1873476
942.63; 26942.803; 2025684.7982127
943.65; 28762.143; 2054963.4188411
944.66; 30627.442; 2086140.8335204
945.68; 32480.236; 2119204.3122991
946.70; 34276.964; 2154096.7820789
947.72; 35991.595; 2190734.6724455
948.74; 37612.84; 2229022.9204645
949.75; 39138.724; 2268864.4525498
950.77; 40572.426; 2310165.4309843
951.79; 41922.467; 2352840.6935016
952.81; 43207.829; 2396824.3991674
953.83; 44465.439; 2442088.2969353
954.84; 45755.24; 2488665.1570432
955.86; 47157.956; 2536669.9217029
956.88; 48763.04; 2586308.5924573
957.90; 50648.466; 2637866.5448714
958.92; 52858.194; 2691673.905263
959.93; 55385.497; 2748053.9509588
960.95; 58169.499; 2807267.9911023
961.97; 61108.277; 2869473.5801648
962.99; 64085.932; 2934710.2934854
964.01; 67005.521; 3002919.0220331
965.02; 69816.792; 3073989.5034559
966.04; 72528.759; 3147820.6500143
967.06; 75201.987; 3224373.0273357
968.08; 77922.454; 3303694.7231683
969.09; 80765.344; 3385910.3577513
970.11; 83760.763; 3471175.1999172
971.13; 86872.828; 3559607.9903735
972.15; 89999.047; 3651223.1363418
973.17; 92990.229; 3745883.1770079
974.18; 95684.687; 3843286.0588973
975.20; 97946.405; 3942991.2726476
976.22; 99696.417; 4044477.9228233
977.24; 100929.43; 4147219.731805
978.26; 101712.67; 4250758.8381619
979.27; 102168.74; 4354762.2071934
980.29; 102448.28; 4459050.1334185
981.31; 102699.25; 4563593.5370092
982.33; 103039.73; 4668483.535862
983.35; 103539.06; 4773881.8319562
984.36; 104210.2; 4879963.3173701
985.38; 105013.99; 4986863.0284236
986.40; 105874.13; 5094638.3196105
987.42; 106699.67; 5203253.9749477
988.44; 107410.33; 5312593.0549562
989.45; 107958.47; 5422490.1200941
990.47; 108341.68; 5532777.2758377
991.49; 108601.62; 5643329.0423999
992.51; 108808.31; 5754091.2044736
993.53; 109033.5; 5865082.6008543
994.54; 109321.15; 5976366.8113504
995.56; 109664.66; 6088000.7066154
996.58; 109999.54; 6199975.489629
997.60; 110215.23; 6312169.8384465
998.62; 110183.73; 6424332.1226972
999.63; 109796.13; 6536099.842162
1000.65; 108995.23; 6647052.2851375
1001.67; 107793.34; 6756781.2555838
1002.69; 106269.2; 6864958.7141493
1003.71; 104545.58; 6971381.5999993
1004.72; 102755.62; 7075982.3889216
1005.74; 101009.67; 7178805.8715545
1006.76; 99373.294; 7279963.596908
1007.78; 97862.416; 7379583.3136889
1008.80; 96454.296; 7477769.6245046
1009.81; 95107.487; 7574584.942334
1010.83; 93781.172; 7670050.1285418
1011.85; 92446.048; 7764156.2161344
1012.87; 91083.907; 7856875.7028144
1013.89; 89678.886; 7948164.9386571
1014.90; 88207.42; 8037956.2863109
1015.92; 86634.333; 8126146.2984139
1016.94; 84919.124; 8212590.3023281
1017.96; 83031.024; 8297112.3014555
1018.97; 80966.248; 8379532.4476498
1019.99; 78758.744; 8459705.4500604
1021.01; 76477.55; 8537556.2957437
1022.03; 74209.19; 8613098.0487931
1023.05; 72030.032; 8686421.5134217
1024.06; 69978.468; 8757656.5741659
1025.08; 68037.869; 8826916.1888424
1026.10; 66137.945; 8894241.7627993
1027.12; 64175.499; 8959569.651121
1028.14; 62048.265; 9022732.1069151
1029.15; 59690.383; 9083494.3408112
1030.17; 57097.137; 9141616.7628087
1031.19; 54330.235; 9196922.5978165
1032.21; 51501.716; 9249349.1226956
1033.23; 48741.984; 9298966.3587165
1034.24; 46162.702; 9345957.9969725
1035.26; 43826.639; 9390571.6243857
1036.28; 41733.647; 9433054.676506
1037.30; 39826.168; 9473595.9964592
1038.32; 38011.17; 9512289.7273598
1039.33; 36190.537; 9549130.1326153
1040.35; 34290.095; 9584035.9694721
1041.37; 32279.033; 9616894.632002
1042.39; 30175.384; 9647611.870763
1043.41; 28037.924; 9676153.267596
1044.42; 25948.682; 9702567.9063186
1045.44; 23992.132; 9726990.8612498
1046.46; 22236.872; 9749627.037054
1047.48; 20723.736; 9770722.9060769
1048.50; 19461.767; 9790534.1454198
1049.51; 18431.246; 9809296.3590135
1050.53; 17591.596; 9827203.8442813
1051.55; 16891.542; 9844398.7046483
1052.57; 16279.216; 9860970.2441969
1053.59; 15710.494; 9876962.8494071
1054.60; 15154.521; 9892389.4975291
1055.62; 14595.944; 9907247.538987
1056.64; 14033.875; 9921533.4185853
1057.66; 13478.09; 9935253.5328213
1058.68; 12943.512; 9948429.4695845
1059.69; 12444.392; 9961097.3231333
1060.71; 11989.699; 9973302.3198054
1061.73; 11580.918; 9985091.1946391
1062.75; 11212.677; 9996505.2160546
1063.76; 10875.757; 10007576.266973
1064.78; 10561.18; 10018327.092093
1065.80; 10263.769; 10028775.166207
1066.82; 9983.7952; 10038938.238851
1067.84; 9726.1056; 10048838.994647
1068.85; 9497.1322; 10058506.665402
1069.87; 9300.9909; 10067974.672762
1070.89; 9136.2429; 10077274.973763
1071.91; 8994.6152; 10086431.103852
1072.93; 8862.2212; 10095452.462563
1073.94; 8722.8818; 10104331.979793
1074.96; 8562.3888; 10113048.122128
1075.98; 8372.2565; 10121570.717997
1077.00; 8151.7559; 10129868.853728
1078.02; 7907.6979; 10137918.548911
1079.03; 7652.251; 10145708.210179
1080.05; 7399.7407; 10153240.826926
1081.07; 7163.6557; 10160533.119343
1082.09; 6954.9044; 10167612.911859
1083.11; 6781.8157; 10174516.507556
1084.12; 6651.6656; 10181287.61606
1085.14; 6572.8821; 10187978.526429
1086.16; 6556.7564; 10194653.021515
1087.18; 6617.5718; 10201389.42408
1088.20; 6770.561; 10208281.563037
1089.21; 7027.8706; 10215435.632089
1090.23; 7393.5367; 10222961.933375
1091.25; 7859.0732; 10230962.130752
1092.27; 8401.4185; 10239514.412264
1093.29; 8984.5328; 10248660.27897
1094.30; 9564.9521; 10258396.987492
1095.32; 10100.323; 10268678.680841
1096.34; 10558.779; 10279427.06209
1097.36; 10926.398; 10290549.66332
1098.38; 11210.259; 10301961.223343
1099.39; 11435.766; 10313602.339532
1100.41; 11638.69; 10325450.023683
1101.43; 11854.213; 10337517.100969
1102.45; 12106.4; 10349840.893364
1103.47; 12401.572; 10362465.158788
1104.48; 12727.824; 10375421.534686
1105.50; 13060.793; 10388716.858149
1106.52; 13373.567; 10402330.571995
1107.54; 13647.096; 10416222.727057
1108.56; 13877.325; 10430349.24487
1109.57; 14076.598; 10444678.61446
1110.59; 14269.222; 10459204.066589
1111.61; 14483.42; 10473947.563106
1112.63; 14743.404; 10488955.711838
1113.64; 15065.132; 10504291.366448
1114.66; 15457.654; 10520026.591561
1115.68; 15929.316; 10536241.94788
1116.70; 16495.715; 10553033.874434
1117.72; 17185.125; 10570527.590619
1118.73; 18037.774; 10588889.265716
1119.75; 19097.675; 10608329.875165
1120.77; 20398.765; 10629094.937951
1121.79; 21949.613; 10651438.697236
1122.81; 23721.989; 10675586.658337
1123.82; 25647.464; 10701694.670034
1124.84; 27623.553; 10729814.25487
1125.86; 29527.601; 10759872.07851
1126.88; 31234.104; 10791667.048493
1127.90; 32630.332; 10824883.318083
1128.91; 33626.342; 10859113.483115
1129.93; 34158.101; 10893884.956244
1130.95; 34185.338; 10928684.155367
1131.97; 33687.67; 10962976.749437
1132.99; 32662.682; 10996225.950364
1134.00; 31127.992; 11027912.90313
1135.02; 29126.657; 11057562.583011
1136.04; 26732.861; 11084775.481638
1137.06; 24053.72; 11109261.130411
1138.08; 21223.866; 11130866.11039
1139.09; 18391.928; 11149588.298953
1140.11; 15701.138; 11165571.379673
1141.13; 13268.829; 11179078.474791
1142.15; 11170.418; 11190449.47859
1143.17; 9432.3664; 11200051.220587
1144.18; 8035.8277; 11208231.346466
1145.20; 6929.4232; 11215285.200246
1146.22; 6046.904; 11221440.687613
1147.24; 5324.3942; 11226860.691123
1148.26; 4712.651; 11231657.966531
1149.27; 4181.9551; 11235915.016362
1150.29; 3719.9144; 11239701.728652
1151.31; 3324.6545; 11243086.083508
1152.33; 2996.8527; 11246136.750195
1153.35; 2733.6919; 11248919.530592
1154.36; 2526.4282; 11251491.325447
1155.38; 2361.5456; 11253895.276991
1156.40; 2224.136; 11256159.35143
1157.42; 2101.5976; 11258298.687144
1158.43; 1986.0642; 11260320.414753
1159.45; 1874.8373; 11262228.918205
1160.47; 1769.0629; 11264029.747938
1161.49; 1671.5368; 11265731.300248
1162.51; 1584.6673; 11267344.423148
1163.52; 1509.3105; 11268880.836077
1164.54; 1444.6574; 11270351.434999
1165.56; 1388.8787; 11271765.253614
1166.58; 1340.0021; 11273129.317944
1167.60; 1296.5573; 11274449.157319
1168.61; 1257.7691; 11275729.511995
1169.63; 1223.3554; 11276974.834968
1170.65; 1193.1542; 11278189.414449
1171.67; 1166.8167; 11279377.183458
1172.69; 1143.6923; 11280541.412889
1173.70; 1122.897; 11281684.473603
1174.72; 1103.4663; 11282807.754693
1175.74; 1084.4974; 11283911.726278
1176.76; 1065.2437; 11284996.098368
1177.78; 1045.1909; 11286060.057596
1178.79; 1024.1659; 11287102.614262
1179.81; 1002.4876; 11288123.10336
1180.83; 981.1032; 11289121.824084
1181.85; 961.60273; 11290100.694167
1182.87; 946.01911; 11291063.700802
1183.88; 936.40138; 11292016.916999
1184.90; 934.25966; 11292967.95302
1185.92; 940.06747; 11293924.901134
1186.94; 953.01821; 11294895.032544
1187.96; 971.15683; 11295883.628292
1188.97; 991.87201; 11296893.311193
1189.99; 1012.5987; 11297924.092959
1191.01; 1031.5044; 11298974.119895
1192.03; 1047.9473; 11300040.885006
1193.05; 1062.591; 11301122.556806
1194.06; 1077.1923; 11302219.092052
1195.08; 1094.1865; 11303332.926662
1196.10; 1116.2364; 11304469.207101
1197.12; 1145.8709; 11305635.654206
1198.14; 1185.2541; 11306842.191735
1199.15; 1236.0358; 11308100.422836
1200.17; 1299.1946; 11309422.946849
1201.19; 1374.8121; 11310822.446196
1202.21; 1461.7977; 11312310.4932
1203.22; 1557.6752; 11313896.139302
1204.24; 1658.5883; 11315584.510668
1205.26; 1759.6557; 11317375.76421
1206.28; 1855.6889; 11319264.775458
1207.30; 1942.1419; 11321241.792114
1208.31; 2016.0227; 11323294.016251
1209.33; 2076.4569; 11325407.759784
1210.35; 2124.6617; 11327570.573669
1211.37; 2163.2725; 11329772.691768
1212.39; 2195.1971; 11332007.307688
1213.40; 2222.3677; 11334269.582076
1214.42; 2244.8471; 11336554.739602
1215.44; 2260.6593; 11338855.993239
1216.46; 2266.4832; 11341163.175359
1217.48; 2259.0406; 11343462.781256
1218.49; 2236.7277; 11345739.673508
1219.51; 2200.9027; 11347980.097497
1220.53; 2156.3093; 11350175.127303
1221.55; 2110.374; 11352323.396927
1222.57; 2071.4959; 11354432.090407
1223.58; 2046.805; 11356515.649599
1224.60; 2040.0773; 11358592.360215
1225.62; 2050.4811; 11360679.661443
1226.64; 2072.5791; 11362789.457551
1227.66; 2097.6175; 11364924.741676
1228.67; 2115.7287; 11367078.462237
1229.69; 2118.401; 11369234.902997
1230.71; 2100.5103; 11371373.131827
1231.73; 2061.3837; 11373471.531501
1232.75; 2004.6854; 11375512.214744
1233.76; 1937.2744; 11377484.276506
1234.78; 1867.4473; 11379385.257275
1235.80; 1803.0791; 11381220.714036
1236.82; 1750.1072; 11383002.247639
1237.84; 1711.6202; 11384744.603171
1238.85; 1687.6111; 11386462.518456
1239.87; 1675.2963; 11388167.897827
1240.89; 1669.8383; 11389867.721139
1241.91; 1665.3098; 11391562.93467
1242.93; 1655.7717; 11393248.438809
1243.94; 1636.3475; 11394914.16995
1244.96; 1604.1615; 11396547.137152
1245.98; 1558.9734; 11398134.104772
1247.00; 1503.3412; 11399664.441229
1248.02; 1442.2116; 11401132.550426
1249.03; 1381.9732; 11402539.339551
1250.05; 1329.1812; 11403892.388684
1251.07; 1289.2958; 11405204.836163
1252.09; 1265.8059; 11406493.371935
1253.10; 1260.0023; 11407775.999897
1254.12; 1271.446; 11409070.277018
1255.14; 1298.9278; 11410392.529474
1256.16; 1341.5336; 11411758.152835
1257.18; 1399.391; 11413182.672516
1258.19; 1473.8024; 11414682.939718
1259.21; 1566.7116; 11416277.784526
1260.23; 1679.712; 11417987.65881
1261.25; 1812.973; 11419833.187121
1262.27; 1964.4826; 11421832.945653
1263.28; 2129.8588; 11424001.05005
1264.30; 2302.7614; 11426345.161781
1265.32; 2475.7147; 11428865.332468
1266.34; 2641.0424; 11431553.799689
1267.36; 2791.6415; 11434395.57025
1268.37; 2921.4633; 11437369.49385
1269.39; 3025.7507; 11440449.577465
1270.41; 3101.1961; 11443606.461231
1271.43; 3146.1937; 11446809.150667
1272.45; 3161.2401; 11450027.156685
1273.46; 3149.3637; 11453233.073068
1274.48; 3116.3216; 11456405.353984
1275.50; 3070.2723; 11459530.75866
1276.52; 3020.7561; 11462605.758051
1277.54; 2977.0506; 11465636.2671
1278.55; 2946.2319; 11468635.404047
1279.57; 2931.4594; 11471619.50326
1280.59; 2931.0182; 11474603.153274
1281.61; 2938.4867; 11477594.405959
1282.63; 2944.09; 11480591.362486
1283.64; 2936.9448; 11483581.04558
1284.66; 2907.636; 11486540.893545
1285.68; 2850.4515; 11489442.530217
1286.70; 2764.7057; 11492256.881269
1287.72; 2654.8376; 11494959.391399
1288.73; 2529.321; 11497534.131036
1289.75; 2398.7327; 11499975.93746
1290.77; 2273.5284; 11502290.291305
1291.79; 2162.0975; 11504491.213244
1292.81; 2069.5359; 11506597.911495
1293.82; 1997.332; 11508631.109292
1294.84; 1943.8911; 11510609.906595
1295.86; 1905.6133; 11512549.738751
1296.88; 1878.1358; 11514461.599997
1297.89; 1857.3785; 11516352.33115
1298.91; 1840.1582; 11518225.532802
1299.93; 1824.3164; 11520082.608142
1300.95; 1808.4671; 11521923.549633
1301.97; 1791.576; 11523747.296692
1302.98; 1772.5917; 11525551.718592
1304.00; 1750.2897; 11527333.43797
1305.02; 1723.376; 11529087.760335
1306.04; 1690.7927; 11530808.914308
1307.06; 1652.0949; 11532490.675646
1308.07; 1607.7581; 11534127.304062
1309.09; 1559.3131; 11535714.617544
1310.11; 1509.272; 11537250.991276
1311.13; 1460.8692; 11538738.093077
1312.15; 1417.6778; 11540181.227882
1313.16; 1383.1641; 11541589.229244
1314.18; 1360.2333; 11542973.888089
1315.20; 1350.8061; 11544348.950363
1316.22; 1355.4723; 11545728.762662
1317.24; 1373.2907; 11547126.713382
1318.25; 1401.8169; 11548553.70251
1319.27; 1437.4319; 11550016.946163
1320.29; 1475.9853; 11551519.435548
1321.31; 1513.6675; 11553060.283699
1322.33; 1547.9195; 11554635.99898
1323.34; 1578.1255; 11556242.462621
1324.36; 1605.8435; 11557877.141997
1325.38; 1634.4484; 11559540.939926
1326.40; 1668.238; 11561239.134223
1327.42; 1711.2457; 11562981.108497
1328.43; 1766.1232; 11564778.945744
1329.45; 1833.4549; 11566645.32367
1330.47; 1911.7247; 11568591.376944
1331.49; 1997.9309; 11570625.184407
1332.51; 2088.6042; 11572751.293356
1333.52; 2180.8439; 11574971.29838
1334.54; 2272.9876; 11577285.10168
1335.56; 2364.6866; 11579692.250551
1336.58; 2456.4092; 11582192.769076
1337.60; 2548.6316; 11584787.166016
1338.61; 2641.1071; 11587475.699049
1339.63; 2732.5718; 11590257.339266
1340.65; 2821.0562; 11593129.052732
1341.67; 2904.7056; 11596085.917726
1342.69; 2982.7785; 11599122.257494
1343.70; 3056.3786; 11602233.518979
1344.72; 3128.5486; 11605418.246417
1345.74; 3203.5688; 11608679.341187
1346.76; 3285.5983; 11612023.938478
1347.77; 3377.0497; 11615461.629345
1348.79; 3477.2111; 11619001.280183
1349.81; 3581.5791; 11622647.173152
1350.83; 3682.1606; 11626395.453778
1351.85; 3768.7154; 11630231.843395
1352.86; 3830.6403; 11634131.269905
1353.88; 3859.0261; 11638059.591911
1354.90; 3848.3891; 11641977.085959
1355.92; 3797.6957; 11645842.976339
1356.94; 3710.5007; 11649620.105936
1357.95; 3594.2513; 11653278.898612
1358.97; 3458.9938; 11656800.004999
1359.99; 3315.8187; 11660175.365352
1361.01; 3175.3783; 11663407.76348
1362.03; 3046.7273; 11666509.200394
1363.04; 2936.607; 11669498.539643
1364.06; 2849.1666; 11672398.868327
1365.08; 2786.0207; 11675234.917197
1366.10; 2746.5139; 11678030.749866
1367.12; 2728.0853; 11680807.822967
1368.13; 2726.6857; 11683583.471324
1369.15; 2737.2607; 11686369.884593
1370.17; 2754.3362; 11689173.679951
1371.19; 2772.7172; 11691996.186431
1372.21; 2788.24; 11694834.494427
1373.22; 2798.4308; 11697683.176243
1374.24; 2802.8772; 11700536.384281
1375.26; 2803.1382; 11703389.857971
1376.28; 2802.1313; 11706242.306686
1377.30; 2803.1037; 11709095.74525
1378.31; 2808.4641; 11711954.640481
1379.33; 2818.8478; 11714824.105938
1380.35; 2832.7529; 11717707.726201
1381.37; 2846.915; 11720605.76282
1382.39; 2857.3324; 11723514.403878
1383.40; 2860.6055; 11726426.376829
1384.42; 2855.1167; 11729332.762469
1385.44; 2841.6175; 11732225.406435
1386.46; 2823.0017; 11735099.100391
1387.48; 2803.3566; 11737952.796444
1388.49; 2786.662; 11740789.498132
1389.51; 2775.6503; 11743614.990396
1390.53; 2771.2622; 11746436.01569
1391.55; 2772.877; 11749258.684776
1392.56; 2779.1582; 11752087.747877
1393.58; 2789.0808; 11754926.91176
1394.60; 2802.6253; 11757779.863392
1395.62; 2820.7733; 11760651.288935
1396.64; 2844.7661; 11763547.138072
1397.65; 2874.9543; 11766473.717459
1398.67; 2909.8085; 11769435.776924
1399.69; 2945.6607; 11772434.332394
1400.71; 2977.4871; 11775465.285815
1401.73; 3000.6175; 11778519.78491
1402.74; 3012.8313; 11781586.717166
1403.76; 3016.0606; 11784656.936698
1404.78; 3016.9659; 11787728.077831
1405.80; 3025.9967; 11790808.411898
1406.82; 3055.06; 11793918.331145
1407.83; 3114.424; 11797088.680407
1408.85; 3209.7797; 11800356.097618
1409.87; 3340.3673; 11803756.44741
1410.89; 3498.7472; 11807318.021056
1411.91; 3672.2698; 11811056.233236
1412.92; 3845.771; 11814971.062194
1413.94; 4004.6578; 11819047.630979
1414.96; 4137.4795; 11823259.406608
1415.98; 4237.3082; 11827572.803509
1417.00; 4301.6774; 11831951.725518
1418.01; 4331.3142; 11836360.816514
1419.03; 4328.2607; 11840766.799182
1420.05; 4294.1287; 11845138.036902
1421.07; 4229.1194; 11849443.097915
1422.09; 4132.1338; 11853649.431796
1423.10; 4001.905; 11857723.198424
1424.12; 3838.7336; 11861630.863574
1425.14; 3646.2064; 11865342.544344
1426.16; 3432.2787; 11868836.455942
1427.18; 3209.2868; 11872103.371389
1428.19; 2992.772; 11875149.884182
1429.21; 2799.3388; 11877999.490233
1430.23; 2644.0411; 11880691.009937
1431.25; 2537.9269; 11883274.510028
1432.27; 2486.3264; 11885805.482964
1433.28; 2488.2774; 11888338.441987
1434.30; 2537.1942; 11890921.196181
1435.32; 2622.58; 11893590.869461
1436.34; 2732.3578; 11896372.291787
1437.36; 2855.286; 11899278.849733
1438.37; 2982.9689; 11902315.383396
1439.39; 3111.1259; 11905482.375277
1440.41; 3239.9952; 11908780.550577
1441.43; 3373.9451; 11912215.081146
1442.44; 3520.4875; 11915798.785477
1443.46; 3688.926; 11919553.952946
1444.48; 3888.8363; 11923512.620457
1445.50; 4128.5148; 11927715.270363
1446.52; 4413.5038; 11932208.026772
1447.53; 4745.3188; 11937038.556534
1448.55; 5120.5658; 11942251.07155
1449.57; 5530.6865; 11947881.071713
1450.59; 5962.5511; 11953950.691392
1451.61; 6399.9881; 11960465.603063
1452.62; 6826.1031; 11967414.28141
1453.64; 7225.9593; 11974769.996146
1454.66; 7588.9741; 11982495.244285
1455.68; 7910.3342; 11990547.623166
1456.70; 8190.9125; 11998885.618626
1457.71; 8435.5601; 12007472.654816
1458.73; 8650.1497; 12016278.133963
1459.75; 8838.1909; 12025275.0309
1460.77; 8998.0664; 12034434.674214
1461.79; 9121.8379; 12043720.311616
1462.80; 9196.1455; 12053081.590914
1463.82; 9205.0937; 12062451.979105
1464.84; 9134.3798; 12071750.383626
1465.86; 8975.4891; 12080887.044228
1466.88; 8728.715; 12089772.499435
1467.89; 8404.0901; 12098327.50048
1468.91; 8019.9333; 12106491.44647
1469.93; 7599.4307; 12114227.338995
1470.95; 7166.2341; 12121522.256053
1471.97; 6740.3027; 12128383.593378
1472.98; 6335.0667; 12134832.4179
1474.00; 5956.5174; 12140895.895569
1475.02; 5604.2148; 12146600.744418
1476.04; 5273.6483; 12151969.090826
1477.06; 4959.0765; 12157017.216756
1478.07; 4655.976; 12161756.799426
1479.09; 4362.5044; 12166197.64067
1480.11; 4079.8033; 12170350.704368
1481.13; 3811.3567; 12174230.501003
1482.15; 3561.8571; 12177856.317829
1483.16; 3336.053; 12181252.275844
1484.18; 3137.9001; 12184446.522738
1485.20; 2970.1111; 12187469.967699
1486.22; 2834.0116; 12190354.869219
1487.23; 2729.5356; 12193133.41867
1488.25; 2655.2509; 12195836.349469
1489.27; 2608.4296; 12198491.618271
1490.29; 2585.2941; 12201123.336139
1491.31; 2581.5882; 12203751.281486
1492.32; 2593.5287; 12206391.381797
1493.34; 2619.011; 12209057.422017
1494.36; 2658.7579; 12211763.922801
1495.38; 2717.014; 12214529.725763
1496.40; 2801.4514; 12217381.482411
1497.41; 2922.1693; 12220356.124661
1498.43; 3089.9732; 12223501.584029
1499.45; 3314.396; 12226875.496093
1500.47; 3602.0555; 12230542.233185
1501.49; 3955.8704; 12234569.138561
1502.50; 4375.3761; 12239023.082617
1503.52; 4857.9889; 12243968.305714
1504.54; 5400.687; 12249465.972044
1505.56; 6001.361; 12255575.098582
1506.58; 6659.1293; 12262353.804859
1507.59; 7373.2222; 12269859.426875
1508.61; 8140.5368; 12278146.142051
1509.63; 8952.4921; 12287259.392703
1510.65; 9792.1917; 12297227.421294
1511.67; 10632.986; 12308051.34255
1512.68; 11439.263; 12319696.018434
1513.70; 12169.723; 12332084.271257
1514.72; 12782.718; 12345096.5267
1515.74; 13242.575; 12358576.896382
1516.76; 13525.494; 12372345.265596
1517.77; 13623.642; 12386213.544761
1518.79; 13546.473; 12400003.270169
1519.81; 13319.032; 12413561.469727
1520.83; 12977.689; 12426772.197545
1521.85; 12564.4; 12439562.214394
1522.86; 12120.745; 12451900.610159
1523.88; 11682.944; 12463793.342838
1524.90; 11278.533; 12475274.40254
1525.92; 10924.894; 12486395.473158
1526.94; 10629.297; 12497215.639329
1527.95; 10389.898; 12507792.107327
1528.97; 10197.144; 12518172.359939
1529.99; 10035.3; 12528387.862383
1531.01; 9884.0929; 12538449.442415
1532.03; 9720.6842; 12548344.679444
1533.04; 9522.1743; 12558037.842021
1534.06; 9268.6149; 12567472.891998
1535.08; 8946.1724; 12576579.709454
1536.10; 8549.7935; 12585283.030297
1537.11; 8084.6251; 12593512.829823
1538.13; 7565.6269; 12601214.311518
1539.15; 7015.2372; 12608355.52028
1540.17; 6459.4933; 12614931.005685
1541.19; 5923.4657; 12620960.838171
1542.20; 5427.0925; 12626485.384105
1543.22; 4982.3932; 12631557.245381
1544.24; 4592.6522; 12636232.367146
1545.26; 4253.6004; 12640562.348782
1546.28; 3956.0908; 12644589.478481
1547.29; 3689.4113; 12648345.139961
1548.31; 3444.3067; 12651851.295547
1549.33; 3214.9858; 12655124.012318
1550.35; 2999.7732; 12658177.651962
1551.37; 2800.4922; 12661028.432144
1552.38; 2620.9955; 12663696.492418
1553.40; 2465.4155; 12666206.178965
1554.42; 2336.6648; 12668584.802893
1555.44; 2235.5331; 12670860.47909
1556.46; 2160.4822; 12673059.756727
1557.47; 2108.0259; 12675205.636164
1558.49; 2073.4504; 12677316.319238
1559.51; 2051.6082; 12679404.767887
1560.53; 2037.5812; 12681478.9376
1561.55; 2027.1134; 12683542.451596
1562.56; 2016.8192; 12685595.486481
1563.58; 2004.237; 12687635.713286
1564.60; 1987.82; 12689659.22828
1565.62; 1966.9234; 12691661.471445
1566.64; 1941.8028; 12693638.142907
1567.65; 1913.5857; 12695586.090535
1568.67; 1884.1542; 12697504.078182
1569.69; 1855.8841; 12699393.288145
1570.71; 1831.2253; 12701257.396524
1571.73; 1812.1688; 12703102.106211
1572.74; 1799.7049; 12704934.128172
1573.76; 1793.4116; 12706759.7438
1574.78; 1791.3092; 12708583.219231
1575.80; 1790.068; 12710405.431248
1576.82; 1785.5738; 12712223.068351
1577.83; 1773.7568; 12714028.676239
1578.85; 1751.5116; 12715811.639472
1579.87; 1717.4911; 12717559.971268
1580.89; 1672.5717; 12719262.577103
1581.90; 1619.8553; 12720911.519935
1582.92; 1564.1765; 12722503.784116
1583.94; 1511.2025; 12724042.123094
1584.96; 1466.3118; 12725534.765226
1585.98; 1433.4939; 12726994.000178
1586.99; 1414.5192; 12728433.919667
1588.01; 1408.5706; 12729867.783708
1589.03; 1412.4344; 12731305.580955
1590.05; 1421.2219; 12732752.32349
1591.07; 1429.4702; 12734207.462516
1592.08; 1432.3768; 12735665.560258
1593.10; 1426.8753; 12737118.057751
1594.12; 1412.2891; 12738555.707156
1595.14; 1390.3872; 12739971.061316
1596.16; 1364.8166; 12741360.385712
1597.17; 1340.0489; 12742724.497692
1598.19; 1320.1152; 12744068.318023
1599.21; 1307.474; 12745399.270096
1600.23; 1302.329; 12746724.984827
1601.25; 1302.5925; 12748050.967828
1602.26; 1304.5029; 12749378.895502
1603.28; 1303.714; 12750706.020132
1604.30; 1296.533; 12752025.834824
1605.32; 1280.942; 12753329.778514
1606.34; 1257.1125; 12754609.464819
1607.35; 1227.2846; 12755858.787593
1608.37; 1195.0791; 12757075.326581
1609.39; 1164.48; 12758260.716996
1610.41; 1138.8049; 12759419.97124
1611.43; 1119.9579; 12760560.040104
1612.44; 1108.1427; 12761688.081523
1613.46; 1102.051; 12762809.92186
1614.48; 1099.3986; 12763929.062213
1615.50; 1097.5931; 12765046.364577
1616.52; 1094.3205; 12766160.335645
1617.53; 1087.9121; 12767267.783214
1618.55; 1077.456; 12768364.58693
1619.57; 1062.7197; 12769446.389715
1620.59; 1043.9939; 12770509.13047
1621.61; 1021.9604; 12771549.442043
1622.62; 997.62863; 12772564.984943
1623.64; 972.31907; 12773554.763803
1624.66; 947.62246; 12774519.402573
1625.68; 925.26379; 12775461.281189
1626.70; 906.84188; 12776384.407088
1627.71; 893.48359; 12777293.934824
1628.73; 885.51306; 12778195.34891
1629.75; 882.26024; 12779093.451759
1630.77; 882.10657; 12779991.398186
1631.78; 882.79506; 12780890.045463
1632.80; 881.9418; 12781787.824154
1633.82; 877.61201; 12782681.195307
1634.84; 868.79264; 12783565.588722
1635.86; 855.61987; 12784436.572829
1636.87; 839.2947; 12785290.938614
1637.89; 821.71707; 12786127.411131
1638.91; 804.95532; 12786946.820917
1639.93; 790.71332; 12787751.73296
1640.95; 779.94874; 12788545.687119
1641.96; 772.73799; 12789332.301044
1642.98; 768.39858; 12790114.497641
1644.00; 765.79863; 12790894.047603
1645.02; 763.7332; 12791671.495041
1646.04; 761.24234; 12792446.40689
1647.05; 757.7835; 12793217.797795
1648.07; 753.23353; 12793984.557029
1649.09; 747.75832; 12794745.742736
1650.11; 741.62832; 12795500.688358
1651.13; 735.06364; 12796248.951426
1652.14; 728.16569; 12796990.192678
1653.16; 720.94649; 12797724.085092
1654.18; 713.42306; 12798450.318986
1655.20; 705.71856; 12799168.710031
1656.22; 698.11328; 12799879.359224
1657.23; 691.01461; 12800582.782279
1658.25; 684.85253; 12801279.9326
1659.27; 679.94052; 12801972.082713
1660.29; 676.35802; 12802660.585994
1661.31; 673.90294; 12803346.590102
1662.32; 672.1363; 12804030.795848
1663.34; 670.50572; 12804713.341735
1664.36; 668.50441; 12805393.850374
1665.38; 665.80913; 12806071.615338
1666.40; 662.34835; 12806745.857381
1667.41; 658.27788; 12807415.955856
1668.43; 653.87587; 12808081.573271
1669.45; 649.39974; 12808742.634182
1670.47; 644.96292; 12809399.178601
1671.49; 640.4837; 12810051.16337
1672.50; 635.73324; 12810698.312375
1673.52; 630.47255; 12811340.106227
1674.54; 624.63247; 12811975.955126
1675.56; 618.46836; 12812605.529227
1676.57; 612.62243; 12813229.152426
1677.59; 608.05187; 12813848.122991
1678.61; 605.82452; 12814464.826214
1679.63; 606.83111; 12815082.554093
1680.65; 611.49788; 12815705.032553
1681.66; 619.59288; 12816335.751372
1682.68; 630.19648; 12816977.264197
1683.70; 641.85936; 12817630.649333
1684.72; 652.91209; 12818295.285663
1685.74; 661.84099; 12818969.011226
1686.75; 667.62246; 12819648.622079
1687.77; 669.92039; 12820330.572127
1688.79; 669.09598; 12821011.682958
1689.81; 666.03974; 12821689.682669
1690.83; 661.89069; 12822363.458828
1691.84; 657.73802; 12823033.007746
1692.86; 654.39595; 12823699.154585
1693.88; 652.30635; 12824363.174306
1694.90; 651.57108; 12825026.44555
1695.92; 652.06813; 12825690.222771
1696.93; 653.5809; 12826355.539923
1697.95; 655.87642; 12827023.193812
1698.97; 658.70227; 12827693.724297
1699.99; 661.71716; 12828367.323811
1701.01; 664.40717; 12829043.66164
1702.02; 666.05266; 12829721.674511
1703.04; 665.79349; 12830399.423551
1704.06; 662.79957; 12831074.124917
1705.08; 656.50612; 12831742.419822
1706.10; 646.83705; 12832400.872024
1707.11; 634.3318; 12833046.594421
1708.13; 620.11413; 12833677.843846
1709.15; 605.68935; 12834294.409464
1710.17; 592.61306; 12834897.663987
1711.19; 582.11975; 12835490.236774
1712.20; 574.81774; 12836075.376433
1713.22; 570.54165; 12836656.163214
1714.24; 568.40845; 12837234.77849
1715.26; 567.06315; 12837812.024305
1716.28; 565.04325; 12838387.213954
1717.29; 561.15631; 12838958.446865
1718.31; 554.76207; 12839523.170717
1719.33; 545.88173; 12840078.854767
1720.35; 535.11137; 12840623.575048
1721.37; 523.37753; 12841156.350786
1722.38; 511.62105; 12841677.158941
1723.40; 500.51443; 12842186.661032
1724.42; 490.30253; 12842685.767852
1725.44; 480.81146; 12843175.213166
1726.45; 471.61049; 12843655.292293
1727.47; 462.259; 12844125.852012
1728.49; 452.54158; 12844586.519809
1729.51; 442.60124; 12845037.068771
1730.53; 432.92019; 12845477.762846
1731.54; 424.15524; 12845909.534576
1732.56; 416.89019; 12846333.910795
1733.58; 411.39928; 12846752.697508
1734.60; 407.51207; 12847167.527209
1735.62; 404.63249; 12847579.425624
1736.63; 401.90749; 12847988.550108
1737.65; 398.48508; 12848394.190723
1738.67; 393.76912; 12848795.030698
1739.69; 387.58078; 12849189.571208
1740.71; 380.17239; 12849576.570296
1741.72; 372.09485; 12849955.346801
1742.74; 363.97267; 12850325.855274
1743.76; 356.27171; 12850688.524505
1744.78; 349.14316; 12851043.937179
1745.80; 342.39453; 12851392.48004
1746.81; 335.58962; 12851734.095791
1747.83; 328.23239; 12852068.222202
1748.85; 319.96323; 12852393.930966
1749.87; 310.69712; 12852710.207226
1750.89; 300.66034; 12853016.266482
1751.90; 290.32211; 12853311.801864
1752.92; 280.25419; 12853597.088533
1753.94; 270.97234; 12853872.92668
1754.96; 262.81198; 12854140.457932
1755.98; 255.87078; 12854400.92334
1756.99; 250.02306; 12854655.436021
1758.01; 244.98636; 12854904.821566
1759.03; 240.40829; 12855149.546834
1760.05; 235.94387; 12855389.727512
1761.07; 231.3065; 12855625.187545
1762.08; 226.29118; 12855855.542201
1763.10; 220.77989; 12856080.286602
1764.12; 214.74147; 12856298.884152
1765.14; 208.23316; 12856510.856526
1766.16; 201.40198; 12856715.875051
1767.17; 194.47747; 12856913.844723
1768.19; 187.74685; 12857104.96291
1769.21; 181.50955; 12857289.731795
1770.23; 176.01808; 12857468.910603
1771.24; 171.42061; 12857643.409384
1772.26; 167.72387; 12857814.145042
1773.28; 164.79059; 12857981.894751
1774.30; 162.37524; 12858147.185743
1775.32; 160.18922; 12858310.251456
1776.33; 157.9768; 12858471.065022
1777.35; 155.5796; 12858629.438337
1778.37; 152.97097; 12858785.156183
1779.39; 150.25167; 12858938.105902
1780.41; 147.60979; 12859088.366296
1781.42; 145.2582; 12859236.232877
1782.44; 143.36835; 12859382.175674
1783.46; 142.01853; 12859526.744413
1784.48; 141.16977; 12859670.449151
1785.50; 140.6741; 12859813.649311
1786.51; 140.31138; 12859956.480239
1787.53; 139.84428; 12860098.835682
1788.55; 139.07693; 12860240.409998
1789.57; 137.90277; 12860380.78907
1790.59; 136.32987; 12860519.566995
1791.60; 134.47755; 12860656.459341
1792.62; 132.54509; 12860791.384525
1793.64; 130.76017; 12860924.49274
1794.66; 129.3203; 12861056.135221
1795.68; 128.34248; 12861186.782331
1796.69; 127.83486; 12861316.912699
1797.71; 127.69775; 12861446.903502
1798.73; 127.75367; 12861576.95122
1799.75; 127.79681; 12861707.042861
1800.77; 127.64737; 12861836.982371
1801.78; 127.1944; 12861966.460777
1802.80; 126.41583; 12862095.146634
1803.82; 125.37171; 12862222.769627
1804.84; 124.17596; 12862349.175396
1805.86; 122.95813; 12862474.341466
1806.87; 121.82871; 12862598.357837
1807.89; 120.85813; 12862721.386193
1808.91; 120.07315; 12862843.615474
1809.93; 119.46757; 12862965.228308
1810.95; 119.01952; 12863086.385043
1811.96; 118.70722; 12863207.223868
1812.98; 118.51839; 12863327.870475
1814.00; 118.45279; 12863448.450299
1815.02; 118.52092; 12863569.09948
1816.04; 118.74266; 12863689.974384
1817.05; 119.14691; 12863811.260796
1818.07; 119.77021; 12863933.181703
1819.09; 120.64995; 12864055.998144
1820.11; 121.80904; 12864179.99449
1821.12; 123.23361; 12864305.440987
1822.14; 124.85092; 12864432.533831
1823.16; 126.51884; 12864561.324554
1824.18; 128.03722; 12864691.660914
1825.20; 129.18456; 12864823.165224
1826.21; 129.77354; 12864955.269085
1827.23; 129.7083; 12865087.306536
1828.25; 129.02264; 12865218.646017
1829.27; 127.88148; 12865348.823848
1830.29; 126.54015; 12865477.636265
1831.30; 125.27177; 12865605.157521
1832.32; 124.28637; 12865731.675682
1833.34; 123.67081; 12865857.567233
1834.36; 123.37244; 12865983.155057
1835.38; 123.23406; 12866108.602011
1836.39; 123.06837; 12866233.880296
1837.41; 122.74462; 12866358.829023
1838.43; 122.25466; 12866483.278994
1839.45; 121.73287; 12866607.197798
1840.47; 121.42168; 12866730.799829
1841.48; 121.59488; 12866854.578171
1842.50; 122.46636; 12866979.243644
1843.52; 124.11714; 12867105.589534
1844.54; 126.46557; 12867234.326024
1845.56; 129.28911; 12867365.936757
1846.57; 132.28685; 12867500.599058
1847.59; 135.15836; 12867638.184436
1848.61; 137.67089; 12867778.327458
1849.63; 139.69425; 12867920.530177
1850.65; 141.19737; 12868064.263011
1851.66; 142.21565; 12868209.032404
1852.68; 142.80832; 12868354.405108
1853.70; 143.02612; 12868499.999526
1854.72; 142.90214; 12868645.467742
1855.74; 142.46675; 12868790.492747
1856.75; 141.77621; 12868934.814806
1857.77; 140.93863; 12869078.284255
1858.79; 140.12227; 12869220.922681
1859.81; 139.53856; 12869362.966915
1860.83; 139.40301; 12869504.873168
1861.84; 139.88561; 12869647.27068
1862.86; 141.06669; 12869790.870479
1863.88; 142.91265; 12869936.349386
1864.90; 145.27923; 12870084.237376
1865.91; 147.94164; 12870234.835584
1866.93; 150.64282; 12870388.183473
1867.95; 153.1466; 12870544.080107
1868.97; 155.28193; 12870702.15041
1869.99; 156.96755; 12870861.936598
1871.00; 158.21284; 12871022.990442
1872.02; 159.09709; 12871184.944418
1873.04; 159.73545; 12871347.548218
1874.06; 160.24318; 12871510.668857
1875.08; 160.70953; 12871674.264226
1876.09; 161.18898; 12871838.347648
1877.11; 161.71069; 12872002.96215
1878.13; 162.30048; 12872168.177038
1879.15; 163.00378; 12872334.107849
1880.17; 163.89717; 12872500.948098
1881.18; 165.08023; 12872668.992653
1882.20; 166.64726; 12872838.63237
1883.22; 168.64834; 12873010.309098
1884.24; 171.05598; 12873184.436702
1885.26; 173.7542; 12873361.310984
1886.27; 176.56044; 12873541.041898
1887.29; 179.27818; 12873723.539349
1888.31; 181.76483; 12873908.568103
1889.33; 183.99033; 12874095.862324
1890.35; 186.06184; 12874285.26525
1891.36; 188.19989; 12874476.844621
1892.38; 190.6685; 12874670.936925
1893.40; 193.67931; 12874868.094103
1894.42; 197.30169; 12875068.938714
1895.44; 201.41073; 12875273.966144
1896.45; 205.6935; 12875483.353252
1897.47; 209.71464; 12875696.833706
1898.49; 213.02186; 12875913.680768
1899.51; 215.25927; 12876132.80542
1900.53; 216.25474; 12876352.943409
1901.54; 216.05782; 12876572.880948
1902.56; 214.92229; 12876791.66257
1903.58; 213.24443; 12877008.736202
1904.60; 211.47963; 12877224.013342
1905.62; 210.06127; 12877437.846646
1906.63; 209.33899; 12877650.944704
1907.65; 209.54283; 12877864.250261
1908.67; 210.77012; 12878078.805147
1909.69; 212.98831; 12878295.618052
1910.71; 216.0481; 12878515.545692
1911.72; 219.70606; 12878739.19698
1912.74; 223.65889; 12878966.872082
1913.76; 227.59073; 12879198.549627
1914.78; 231.22913; 12879433.930907
1915.79; 234.39824; 12879672.538204
1916.81; 237.05317; 12879913.8481
1917.83; 239.28152; 12880157.426361
1918.85; 241.26744; 12880403.026203
1919.87; 243.22672; 12880650.620509
1920.88; 245.33369; 12880900.359614
1921.90; 247.6654; 12881152.472307
1922.92; 250.18373; 12881407.148544
1923.94; 252.76175; 12881664.449098
1924.96; 255.24413; 12881924.276604
1925.97; 257.51703; 12882186.417825
1926.99; 259.55956; 12882450.638258
1928.01; 261.45563; 12882716.788803
1929.03; 263.36096; 12882984.878892
1930.05; 265.43789; 12883255.083212
1931.06; 267.78304; 12883527.674791
1932.08; 270.37563; 12883802.905516
1933.10; 273.0663; 12884080.875228
1934.12; 275.61092; 12884361.435251
1935.14; 277.73808; 12884644.160636
1936.15; 279.22807; 12884928.402763
1937.17; 279.9787; 12885213.408999
1938.19; 280.03952; 12885498.477148
1939.21; 279.6067; 12885783.1047
1940.23; 278.98238; 12886067.096722
1941.24; 278.51058; 12886350.608477
1942.26; 278.50499; 12886634.114543
1943.28; 279.18354; 12886918.311338
1944.30; 280.6216; 12887203.972018
1945.32; 282.73228; 12887491.78128
1946.33; 285.2784; 12887782.182384
1947.35; 287.91668; 12888075.269139
1948.37; 290.2687; 12888370.750151
1949.39; 292.00645; 12888668.000112
1950.41; 292.93367; 12888966.193949
1951.42; 293.04168; 12889264.497734
1952.44; 292.52123; 12889562.271723
1953.46; 291.72259; 12889859.232733
1954.48; 291.07061; 12890155.530053
1955.50; 290.95649; 12890451.711205
1956.51; 291.63707; 12890748.585155
1957.53; 293.17132; 12891047.02091
1958.55; 295.41254; 12891347.738129
1959.57; 298.05608; 12891651.146361
1960.58; 300.7243; 12891957.270723
1961.60; 303.05869; 12892265.771389
1962.62; 304.78947; 12892576.033914
1963.64; 305.76438; 12892887.288854
1964.66; 305.93639; 12893198.718895
1965.67; 305.32707; 12893509.528679
1966.69; 303.99065; 12893818.97804
1967.71; 302.0003; 12894126.401313
1968.73; 299.46442; 12894431.243166
1969.75; 296.56246; 12894733.130951
1970.76; 293.57667; 12895031.979328
1971.78; 290.89306; 12895328.095907
1972.80; 288.9555; 12895622.240142
1973.82; 288.17624; 12895915.591119
1974.84; 288.82688; 12896209.604418
1975.85; 290.94708; 12896505.775987
1976.87; 294.30694; 12896805.367749
1977.89; 298.44345; 12897109.170303
1978.91; 302.76629; 12897417.373322
1979.93; 306.70321; 12897729.58396
1980.94; 309.84015; 12898044.987858
1981.96; 312.01181; 12898362.602416
1982.98; 313.31546; 12898681.544036
1984.00; 314.04681; 12899001.230133
1985.02; 314.58354; 12899321.462604
1986.03; 315.25837; 12899642.382019
1987.05; 316.26387; 12899964.32499
1988.07; 317.61683; 12900287.645213
1989.09; 319.18551; 12900612.562289
1990.11; 320.76012; 12900939.08225
1991.12; 322.13276; 12901266.999501
1992.14; 323.15413; 12901595.956457
1993.16; 323.74825; 12901925.518206
1994.18; 323.88771; 12902255.221921
1995.20; 323.5502; 12902584.58206
1996.21; 322.68556; 12902913.062035
1997.23; 321.21684; 12903240.046919
1998.25; 319.08166; 12903564.858275
1999.27; 316.29941; 12903886.837427
2000.29; 313.03416; 12904205.492693
2001.30; 309.61961; 12904520.6721
2002.32; 306.52429; 12904832.700598
2003.34; 304.25665; 12905142.420742
2004.36; 303.23443; 12905451.100308
2005.37; 303.65866; 12905760.21172
2006.39; 305.43537; 12906071.13175
2007.41; 308.17396; 12906384.83954
2008.43; 311.26647; 12906701.695375
2009.45; 314.02549; 12907021.359772
2010.46; 315.83929; 12907342.87054
2011.48; 316.29901; 12907664.849285
2012.50; 315.2641; 12907985.77453
2013.52; 312.85457; 12908304.246978
2014.54; 309.38304; 12908619.185566
2015.55; 305.25653; 12908929.923539
2016.57; 300.88228; 12909236.208719
2017.59; 296.60345; 12909538.138229
2018.61; 292.67321; 12909836.066932
2019.63; 289.25935; 12910130.520469
2020.64; 286.461; 12910422.125408
2021.66; 284.32034; 12910711.551247
2022.68; 282.82134; 12910999.451166
2023.70; 281.88087; 12911286.393723
2024.72; 281.34649; 12911572.792305
2025.73; 281.01539; 12911858.853847
2026.75; 280.67943; 12912144.573398
2027.77; 280.18637; 12912429.791035
2028.79; 279.4946; 12912714.304476
2029.81; 278.69483; 12912998.003788
2030.82; 277.98099; 12913280.976438
2031.84; 277.57141; 12913563.532156
2032.86; 277.60361; 12913846.120647
2033.88; 278.04124; 12914129.154635
2034.90; 278.63355; 12914412.791563
2035.91; 278.95214; 12914696.7528
2036.93; 278.50318; 12914980.257016
2037.95; 276.88328; 12915262.112245
2038.97; 273.92735; 12915540.958464
2039.99; 269.79459; 12915815.597714
2041.00; 264.95669; 12916085.312188
2042.02; 260.08472; 12916350.067206
2043.04; 255.86668; 12916610.528445
2044.06; 252.81302; 12916867.881191
2045.08; 251.11303; 12917123.503417
2046.09; 250.58886; 12917378.592066
2047.11; 250.76115; 12917633.856094
2048.13; 251.00301; 12917889.366327
2049.15; 250.73097; 12918144.599634
2050.17; 249.57121; 12918398.652361
2051.18; 247.45117; 12918650.546976
2052.20; 244.59381; 12918899.532917
2053.22; 241.42528; 12919145.293429
2054.24; 238.43319; 12919388.00813
2055.25; 236.02451; 12919628.270899
2056.27; 234.42596; 12919866.906408
2057.29; 233.65046; 12920104.75249
2058.31; 233.5287; 12920342.474627
2059.33; 233.7847; 12920580.457366
2060.34; 234.1249; 12920818.786412
2061.36; 234.31276; 12921057.306696
2062.38; 234.21222; 12921295.724633
2063.40; 233.7968; 12921533.719691
2064.42; 233.13192; 12921771.037928
2065.43; 232.34191; 12922007.551966
2066.45; 231.57175; 12922243.282015
2067.47; 230.9493; 12922478.378438
2068.49; 230.55062; 12922713.069017
2069.51; 230.3711; 12922947.576859
2070.52; 230.30799; 12923182.020458
2071.54; 230.16214; 12923416.315582
2072.56; 229.66627; 12923650.105933
2073.58; 228.54078; 12923882.750587
2074.60; 226.56798; 12924113.387014
2075.61; 223.66575; 12924341.069095
2076.63; 219.93639; 12924564.954851
2077.65; 215.67007; 12924784.497678
2078.67; 211.2947; 12924999.586569
2079.69; 207.28178; 12925210.590473
2080.70; 204.03394; 12925418.288216
2081.72; 201.78837; 12925623.700069
2082.74; 200.56646; 12925827.868074
2083.76; 200.18524; 12926031.648015
2084.78; 200.32533; 12926235.570552
2085.79; 200.63095; 12926439.804206
2086.81; 200.8079; 12926644.217982
2087.83; 200.68769; 12926848.509388
2088.85; 200.24107; 12927052.346153
2089.87; 199.5433; 12927255.472625
2090.88; 198.71146; 12927457.752312
2091.90; 197.84204; 12927659.146974
2092.92; 196.97396; 12927859.657964
2093.94; 196.08812; 12928059.267207
2094.96; 195.13826; 12928257.909531
2095.97; 194.09372; 12928455.488559
2096.99; 192.97076; 12928651.924468
2098.01; 191.835; 12928847.204224
2099.03; 190.77137; 12929041.401244
2100.04; 189.83327; 12929234.643326
2101.06; 188.99295; 12929427.02999
2102.08; 188.11584; 12929618.523793
2103.10; 186.97353; 12929808.854776
2104.12; 185.29499; 12929997.477076
2105.13; 182.84129; 12930183.601621
2106.15; 179.47999; 12930366.304502
2107.17; 175.23501; 12930544.686183
2108.19; 170.2966; 12930718.040773
2109.21; 164.98901; 12930885.992465
2110.22; 159.70718; 12931048.567479
2111.24; 154.84165; 12931206.189593
2112.26; 150.71203; 12931359.607937
2113.28; 147.52335; 12931509.780338
2114.30; 145.34996; 12931657.74033
2115.31; 144.14291; 12931804.471591
2116.33; 143.75105; 12931950.803959
2117.35; 143.94689; 12932097.335682
2118.37; 144.45182; 12932244.3814
2119.39; 144.9613; 12932391.945751
2120.40; 145.17387; 12932539.726482
2121.42; 144.8272; 12932687.154324
2122.44; 143.74015; 12932833.475592
2123.46; 141.85286; 12932977.875679
2124.48; 139.25255; 12933119.628766
2125.49; 136.17204; 12933258.246028
2126.51; 132.95374; 12933393.5872
2127.53; 129.98222; 12933525.903492
2128.55; 127.59978; 12933655.794564
2129.57; 126.02772; 12933784.085343
2130.58; 125.31698; 12933911.652622
2131.60; 125.34482; 12934039.248238
2132.62; 125.86011; 12934167.3684
2133.64; 126.56438; 12934296.205475
2134.66; 127.20314; 12934425.69278
2135.67; 127.63834; 12934555.623099
2136.69; 127.87858; 12934685.797979
2137.71; 128.05816; 12934816.155664
2138.73; 128.37337; 12934946.834215
2139.75; 128.99917; 12935078.1498
2140.76; 130.01561; 12935210.500076
2141.78; 131.36916; 12935344.228215
2142.80; 132.88133; 12935479.495676
2143.82; 134.29986; 12935616.207142
2144.84; 135.37357; 12935754.011599
2145.85; 135.92448; 12935892.376854
2146.87; 135.89376; 12936030.710837
2147.89; 135.34878; 12936168.49005
2148.91; 134.45288; 12936305.357278
2149.92; 133.41224; 12936441.165182
2150.94; 132.42015; 12936575.96318
2151.96; 131.61712; 12936709.943728
2152.98; 131.0768; 12936843.374254
2154.00; 130.81645; 12936976.53975
2155.01; 130.82164; 12937109.710534
2156.03; 131.07119; 12937243.135346
2157.05; 131.5505; 12937377.048078
2158.07; 132.24881; 12937511.671658
2159.09; 133.14376; 12937647.206265
2160.10; 134.1829; 12937783.798667
2161.12; 135.27287; 12937921.500614
2162.14; 136.28422; 12938060.232066
2163.16; 137.07298; 12938199.766441
2164.18; 137.51392; 12938339.749678
2165.19; 137.53544; 12938479.754826
2166.21; 137.14513; 12938619.362648
2167.23; 136.43743; 12938758.250068
2168.25; 135.57994; 12938896.264601
2169.27; 134.78024; 12939033.465067
2170.28; 134.24051; 12939170.116111
2171.30; 134.11015; 12939306.634454
2172.32; 134.44751; 12939443.49622
2173.34; 135.20059; 12939581.124591
2174.36; 136.21287; 12939719.783417
2175.37; 137.25538; 12939859.503472
2176.39; 138.07983; 12940000.062783
2177.41; 138.48169; 12940141.031166
2178.43; 138.35794; 12940281.87358
2179.45; 137.74368; 12940422.090698
2180.46; 136.81527; 12940561.362735
2181.48; 135.85608; 12940699.658359
2182.50; 135.19113; 12940837.277094
2183.52; 135.10708; 12940974.810275
2184.54; 135.78003; 12941113.028489
2185.55; 137.23282; 12941252.725578
2186.57; 139.33599; 12941394.563602
2187.59; 141.85313; 12941538.963964
2188.61; 144.51704; 12941686.076071
2189.63; 147.11233; 12941835.83007
2190.64; 149.5369; 12941988.052178
2191.66; 151.82116; 12942142.599565
2192.68; 154.09776; 12942299.46444
2193.70; 156.53201; 12942458.807268
2194.71; 159.23732; 12942620.903985
2195.73; 162.20673; 12942786.023435
2196.75; 165.28651; 12942954.277974
2197.77; 168.20398; 12943125.50237
2198.79; 170.64221; 12943299.208781
2199.80; 172.33707; 12943474.640487
2200.82; 173.16269; 12943650.912633
2201.84; 173.17435; 12943827.196643
2202.86; 172.59191; 12944002.887758
2203.88; 171.72769; 12944177.699136
2204.89; 170.88278; 12944351.650427
2205.91; 170.24784; 12944524.955385
2206.93; 169.84385; 12944697.849096
2207.95; 169.52445; 12944870.417674
2208.97; 169.04028; 12945042.493389
2209.98; 168.14305; 12945213.655756
2211.00; 166.69268; 12945383.341714
2212.02; 164.72914; 12945551.028872
2213.04; 162.48238; 12945716.428922
2214.06; 160.31558; 12945879.623262
2215.07; 158.6199; 12946041.091473
2216.09; 157.69574; 12946201.618927
2217.11; 157.65983; 12946362.109828
2218.13; 158.40816; 12946523.362498
2219.15; 159.64539; 12946685.874613
2220.16; 160.96921; 12946849.734321
2221.18; 161.98092; 12947014.623905
2222.20; 162.38683; 12947179.926691
2223.22; 162.06091; 12947344.897699
2224.24; 161.05385; 12947508.843565
2225.25; 159.55241; 12947671.261036
2226.27; 157.80773; 12947831.902495
2227.29; 156.05849; 12947990.763307
2228.31; 154.47264; 12948148.009784
2229.33; 153.12127; 12948303.88063
2230.34; 151.98613; 12948458.595952
2231.36; 150.991; 12948612.298278
2232.38; 150.04222; 12948765.03478
2233.40; 149.06385; 12948916.775352
2234.42; 148.01869; 12949067.451989
2235.43; 146.9128; 12949217.002881
2236.45; 145.78764; 12949365.408403
2237.47; 144.70605; 12949512.712913
2238.49; 143.73843; 12949659.032429
2239.51; 142.95253; 12949804.551941
2240.52; 142.40745; 12949949.51658
2241.54; 142.15009; 12950094.219237
2242.56; 142.21204; 12950238.98496
2243.58; 142.60548; 12950384.151183
2244.59; 143.31845; 12950530.043178
2245.61; 144.31155; 12950676.946109
2246.63; 145.51886; 12950825.078032
2247.65; 146.85586; 12950974.570957
2248.67; 148.23574; 12951125.46854
2249.68; 149.59327; 12951277.748032
2250.70; 150.91208; 12951431.370021
2251.72; 152.24846; 12951586.352386
2252.74; 153.74273; 12951742.855854
2253.76; 155.60993; 12951901.260044
2254.77; 158.105; 12952062.204112
2255.79; 161.4647; 12952226.568211
2256.81; 165.83643; 12952395.382544
2257.83; 171.21178; 12952569.66875
2258.85; 177.38545; 12952750.239483
2259.86; 183.95706; 12952937.49983
2260.88; 190.38331; 12953131.301822
2261.90; 196.0736; 12953330.896287
2262.92; 200.50781; 12953535.004583
2263.94; 203.34561; 12953742.001638
2264.95; 204.49665; 12953950.170401
2265.97; 204.13059; 12954157.966537
2266.99; 202.62357; 12954364.228587
2268.01; 200.4566; 12954568.284755
2269.03; 198.09633; 12954769.938275
2270.04; 195.89296; 12954969.348859
2271.06; 194.02352; 12955166.856426
2272.08; 192.49284; 12955362.805828
2273.10; 191.18547; 12955557.424391
2274.12; 189.94605; 12955750.781274
2275.13; 188.6589; 12955942.827894
2276.15; 187.30155; 12956133.492785
2277.17; 185.95858; 12956322.790598
2278.19; 184.79779; 12956510.906775
2279.21; 184.02254; 12956698.233779
2280.22; 183.81979; 12956885.354397
2281.24; 184.32018; 12957072.984382
2282.26; 185.57801; 12957261.894792
2283.28; 187.5696; 12957452.832556
2284.30; 190.20159; 12957646.449565
2285.31; 193.32071; 12957843.24171
2286.33; 196.72089; 12958043.49509
2287.35; 200.15019; 12958247.23935
2288.37; 203.3252; 12958454.21563
2289.38; 205.9599; 12958663.87392
2290.40; 207.81049; 12958875.416035
2291.42; 208.72863; 12959087.892772
2292.44; 208.70769; 12959300.348191
2293.46; 207.90423; 12959511.985728
2294.47; 206.62156; 12959722.317559
2295.49; 205.25357; 12959931.256838
2296.51; 204.20099; 12960139.124636
2297.53; 203.78275; 12960346.56668
2298.55; 204.16882; 12960554.401725
2299.56; 205.35474; 12960763.443987
2300.58; 207.18457; 12960974.348942
2301.60; 209.41273; 12961187.522064
2302.62; 211.78224; 12961403.107249
2303.64; 214.09233; 12961621.044
2304.65; 216.23337; 12961841.16024
2305.67; 218.18074; 12962063.258823
2306.69; 219.9548; 12962287.163321
2307.71; 221.5671; 12962512.709062
2308.73; 222.97742; 12962739.690451
2309.74; 224.08122; 12962967.79546
2310.76; 224.73441; 12963196.565394
2311.78; 224.80775; 12963425.409978
2312.80; 224.25115; 12963653.687969
2313.82; 223.1445; 12963880.839439
2314.83; 221.71564; 12964106.53639
2315.85; 220.31754; 12964330.810142
2316.87; 219.36968; 12964554.119013
2317.89; 219.27897; 12964777.335543
2318.91; 220.36037; 12965001.652888
2319.92; 222.77514; 12965228.428372
2320.94; 226.49819; 12965458.993751
2321.96; 231.31754; 12965694.465026
2322.98; 236.86266; 12965935.580994
2324.00; 242.65411; 12966182.592404
2325.01; 248.16653; 12966435.215222
2326.03; 252.89727; 12966692.653729
2327.05; 256.43312; 12966953.691582
2328.07; 258.50734; 12967216.840903
2329.09; 259.03835; 12967480.53077
2330.10; 258.14222; 12967743.30841
2331.12; 256.11439; 12968004.021805
2332.14; 253.38214; 12968261.953885
2333.16; 250.43644; 12968516.887376
2334.18; 247.75784; 12968769.094163
2335.19; 245.75272; 12969019.259828
2336.21; 244.71337; 12969268.367476
2337.23; 244.80738; 12969517.570824
2338.25; 246.09316; 12969768.083046
2339.26; 248.5507; 12970021.096935
2340.28; 252.1138; 12970277.737901
2341.30; 256.69221; 12970539.039496
2342.32; 262.17785; 12970805.925231
2343.34; 268.43605; 12971079.181545
2344.35; 275.28836; 12971359.413214
2345.37; 282.49509; 12971646.981021
2346.39; 289.74532; 12971941.929252
2347.41; 296.65967; 12972243.915998
2348.43; 302.80897; 12972552.162464
2349.44; 307.75042; 12972865.439114
2350.46; 311.08144; 12973182.106595
2351.48; 312.50819; 12973500.226447
2352.50; 311.92073; 12973817.748286
2353.52; 309.4598; 12974132.765005
2354.53; 305.55493; 12974443.806742
2355.55; 300.91285; 12974750.123035
2356.57; 296.44243; 12975051.888633
2357.59; 293.11766; 12975350.269767
2358.61; 291.79909; 12975647.308653
2359.62; 293.0513; 12975945.622227
2360.64; 297.00203; 12976247.957481
2361.66; 303.28285; 12976556.686334
2362.68; 311.07226; 12976873.344475
2363.70; 319.23602; 12977198.312965
2364.71; 326.533; 12977530.709468
2365.73; 331.83905; 12977868.507302
2366.75; 334.33883; 12978208.849808
2367.77; 333.64822; 12978548.489295
2368.79; 329.85069; 12978884.263064
2369.80; 323.45339; 12979213.524653
2370.82; 315.28398; 12979534.470137
2371.84; 306.35572; 12979846.327038
2372.86; 297.72496; 12980149.398197
2373.88; 290.35813; 12980444.970242
2374.89; 285.01843; 12980735.106706
2375.91; 282.17945; 12981022.353207
2376.93; 281.97337; 12981309.389932
2377.95; 284.18258; 12981598.675535
2378.97; 288.28114; 12981892.133298
2379.98; 293.52564; 12982190.929738
2381.00; 299.08357; 12982495.38391
2382.02; 304.1766; 12982805.022563
2383.04; 308.21009; 12983118.767134
2384.05; 310.86243; 12983435.211678
2385.07; 312.11797; 12983752.934301
2386.09; 312.24158; 12984070.782759
2387.11; 311.70656; 12984388.086582
2388.13; 311.0947; 12984704.767566
2389.14; 310.98884; 12985021.340781
2390.16; 311.87298; 12985338.814019
2391.18; 314.05054; 12985658.503913
2392.20; 317.58746; 12985981.794241
2393.22; 322.28802; 12986309.869536
2394.23; 327.71206; 12986643.466267
2395.25; 333.24099; 12986982.691215
2396.27; 338.19179; 12987326.955867
2397.29; 341.96396; 12987675.060419
2398.31; 344.18853; 12988025.429493
2399.32; 344.83814; 12988376.459834
2400.34; 344.25902; 12988726.900662
2401.36; 343.10373; 12989076.165454
2402.38; 342.17159; 12989424.481367
2403.40; 342.19533; 12989772.821451
2404.41; 343.63345; 12990122.625473
2405.43; 346.53085; 12990475.378921
2406.45; 350.49222; 12990832.164874
2407.47; 354.77869; 12991193.314273
2408.49; 358.50049; 12991558.252303
2409.50; 360.84932; 12991925.581341
2410.52; 361.30378; 12992293.372993
2411.54; 359.75172; 12992659.584724
2412.56; 356.50056; 12993022.486916
2413.58; 352.17941; 12993380.990354
2414.59; 347.56583; 12993734.797375
2415.61; 343.38629; 12994084.349797
2416.63; 340.14064; 12994430.598289
2417.65; 337.99087; 12994774.658409
2418.67; 336.73582; 12995117.440939
2419.68; 335.87417; 12995459.34635
2420.70; 334.7399; 12995800.097128
2421.72; 332.67989; 12996138.750901
2422.74; 329.23387; 12996473.896771
2423.76; 324.27376; 12996803.993468
2424.77; 318.0646; 12997127.769503
2425.79; 311.22443; 12997444.582539
2426.81; 304.58512; 12997754.637052
2427.83; 298.98416; 12998058.990024
2428.85; 295.0418; 12998359.329842
2429.86; 292.9887; 12998657.579691
2430.88; 292.5996; 12998955.433454
2431.90; 293.25938; 12999253.958845
2432.92; 294.14649; 12999553.387282
2433.93; 294.47894; 12999853.154133
2434.95; 293.74459; 13000152.173454
2435.97; 291.84043; 13000449.254418
2436.99; 289.07451; 13000743.519791
2438.01; 286.03119; 13001034.6872
2439.02; 283.34701; 13001323.122225
2440.04; 281.47509; 13001609.651721
2441.06; 280.51909; 13001895.208048
2442.08; 280.19175; 13002180.431155
2443.10; 279.90946; 13002465.366911
2444.11; 278.98766; 13002749.364313
2445.13; 276.86982; 13003031.205847
2446.15; 273.31557; 13003309.429302
2447.17; 268.49098; 13003582.741534
2448.19; 262.93926; 13003850.402357
2449.20; 257.44811; 13004112.473425
2450.22; 252.8589; 13004369.872878
2451.24; 249.87392; 13004624.23375
2452.26; 248.91074; 13004877.614146
2453.28; 250.03301; 13005132.136964
2454.29; 252.96321; 13005389.642599
2455.31; 257.16293; 13005651.423365
2456.33; 261.95465; 13005918.081897
2457.35; 266.65618; 13006189.526384
2458.37; 270.70196; 13006465.0893
2459.38; 273.73185; 13006743.736508
2460.40; 275.63482; 13007024.320858
2461.42; 276.54225; 13007305.828934
2462.44; 276.77328; 13007587.57219
2463.46; 276.74334; 13007869.284971
2464.47; 276.8552; 13008151.111616
2465.49; 277.39731; 13008433.490111
2466.51; 278.47429; 13008716.964926
2467.53; 279.98726; 13009001.979879
2468.55; 281.66915; 13009288.706919
2469.56; 283.16457; 13009576.956229
2470.58; 284.13106; 13009866.18939
2471.60; 284.33244; 13010155.627549
2472.62; 283.69786; 13010444.41973
2473.64; 282.33129; 13010731.820802
2474.65; 280.47136; 13011017.328541
2475.67; 278.4159; 13011300.743914
2476.69; 276.43482; 13011582.142633
2477.71; 274.69615; 13011861.771461
2478.72; 273.22436; 13012139.90207
2479.74; 271.89913; 13012416.683653
2480.76; 270.49134; 13012692.03217
2481.78; 268.72375; 13012965.58135
2482.80; 266.33941; 13013236.70338
2483.81; 263.16144; 13013504.590374
2484.83; 259.13181; 13013768.375375
2485.85; 254.32342; 13014027.265638
2486.87; 248.9259; 13014280.661464
2487.89; 243.2107; 13014528.239457
2488.90; 237.48376; 13014769.987673
2489.92; 232.03538; 13015006.189681
2490.94; 227.0957; 13015237.363301
2491.96; 222.80243; 13015464.166562
2492.98; 219.18536; 13015687.287804
2493.99; 216.16904; 13015907.338557
2495.01; 213.59305; 13016124.767065
2496.03; 211.24682; 13016339.807213
2497.05; 208.91371; 13016552.472353
2498.07; 206.41747; 13016762.596433
2499.08; 203.6629; 13016969.916479
2500.10; 200.66226; 13017174.182001
2501.12; 197.54072; 13017375.269935
2502.14; 194.51733; 13017573.280184
2503.16; 191.863; 13017768.588435
2504.17; 189.84287; 13017961.840288
2505.19; 188.65514; 13018153.883079
2506.21; 188.38068; 13018345.646483
2507.23; 188.95689; 13018537.996443
2508.25; 190.18369; 13018731.595235
2509.26; 191.76219; 13018926.80087
2510.28; 193.35791; 13019123.630879
2511.30; 194.674; 13019321.800606
2512.32; 195.51675; 13019520.828222
2513.34; 195.83758; 13019720.18243
2514.35; 195.74113; 13019919.438456
2515.37; 195.45763; 13020118.405885
2516.39; 195.28607; 13020317.198673
2517.41; 195.52171; 13020516.231333
2518.43; 196.38484; 13020716.142629
2519.44; 197.96759; 13020917.665088
2520.46; 200.21118; 13021121.47143
2521.48; 202.9195; 13021328.034722
2522.50; 205.80586; 13021537.536209
2523.52; 208.56232; 13021749.843655
2524.53; 210.93462; 13021964.565994
2525.55; 212.78402; 13022181.170945
2526.57; 214.12008; 13022399.13595
2527.59; 215.09546; 13022618.093843
2528.60; 215.964; 13022837.935875
2529.62; 217.0134; 13023058.846155
2530.64; 218.49053; 13023281.260082
2531.66; 220.53921; 13023505.759482
2532.68; 223.16602; 13023732.932862
2533.69; 226.24058; 13023963.236008
2534.71; 229.52703; 13024196.884616
2535.73; 232.73525; 13024433.799055
2536.75; 235.5771; 13024673.606376
2537.77; 237.81479; 13024915.691572
2538.78; 239.29387; 13025159.28241
2539.80; 239.9592; 13025403.550517
2540.82; 239.8561; 13025647.71368
2541.84; 239.11968; 13025891.127199
2542.86; 237.95318; 13026133.353272
2543.87; 236.59501; 13026374.19678
2544.89; 235.27444; 13026613.696005
2545.91; 234.16042; 13026852.061208
2546.93; 233.31376; 13027089.564546
2547.95; 232.6579; 13027326.400245
2548.96; 231.98302; 13027562.548954
2549.98; 230.99105; 13027797.687879
2551.00; 229.37592; 13028031.182663
2552.02; 226.91938; 13028262.176799
2553.04; 223.57298; 13028489.764448
2554.05; 219.49702; 13028713.202944
2555.07; 215.03898; 13028932.103349
2556.09; 210.65352; 13029146.539538
2557.11; 206.7867; 13029357.03947
2558.13; 203.76099; 13029564.459369
2559.14; 201.69824; 13029769.77947
2560.16; 200.50486; 13029973.884765
2561.18; 199.92183; 13030177.396565
2562.20; 199.619; 13030380.600094
2563.22; 199.29911; 13030583.477984
2564.23; 198.77601; 13030785.823388
2565.25; 198.00417; 13030987.383085
2566.27; 197.05682; 13031187.978426
2567.29; 196.07012; 13031387.569351
2568.31; 195.18083; 13031586.255019
2569.32; 194.48368; 13031784.231011
2570.34; 194.02151; 13031981.736531
2571.36; 193.80432; 13032179.020961
2572.38; 193.83957; 13032376.341283
2573.39; 194.15219; 13032573.979839
2574.41; 194.77955; 13032772.257011
2575.43; 195.74103; 13032971.512933
2576.45; 196.99635; 13033172.046713
2577.47; 198.41448; 13033374.024087
2578.48; 199.77294; 13033577.38432
2579.50; 200.79511; 13033781.78508
2580.52; 201.21733; 13033986.615641
2581.54; 200.86464; 13034191.087178
2582.56; 199.70937; 13034394.382702
2583.57; 197.89254; 13034595.828769
2584.59; 195.70127; 13034795.044212
2585.61; 193.51045; 13034992.029497
2586.63; 191.7076; 13035187.179564
2587.65; 190.62235; 13035381.224889
2588.66; 190.47659; 13035575.121844
2589.68; 191.36148; 13035769.919573
2590.70; 193.23759; 13035966.627101
2591.72; 195.94994; 13036166.095681
2592.74; 199.24988; 13036368.923465
2593.75; 202.82073; 13036575.386219
2594.77; 206.30843; 13036785.399296
2595.79; 209.36018; 13036998.518929
2596.81; 211.67078; 13037213.99065
2597.83; 213.0302; 13037430.846197
2598.84; 213.36094; 13037648.038431
2599.86; 212.73243; 13037864.590862
2600.88; 211.34466; 13038079.730602
2601.90; 209.48315; 13038292.97541
2602.92; 207.45698; 13038504.157666
2603.93; 205.53794; 13038713.386418
2604.95; 203.9178; 13038920.965942
2605.97; 202.69281; 13039127.298472
2606.99; 201.87313; 13039332.796611
2608.01; 201.40603; 13039537.819261
2609.02; 201.1979; 13039742.630046
2610.04; 201.12545; 13039947.367074
2611.06; 201.03555; 13040152.012586
2612.08; 200.74346; 13040356.360767
2613.10; 200.04326; 13040559.996169
2614.11; 198.74035; 13040762.305266
2615.13; 196.70495; 13040962.542414
2616.15; 193.9317; 13041159.956515
2617.17; 190.5819; 13041353.960665
2618.19; 186.98533; 13041544.303659
2619.20; 183.59008; 13041731.190442
2620.22; 180.86726; 13041915.305509
2621.24; 179.19527; 13042097.71856
2622.26; 178.75887; 13042279.687378
2623.27; 179.4955; 13042462.406054
2624.29; 181.10665; 13042646.76481
2625.31; 183.13079; 13042833.184051
2626.33; 185.05411; 13043021.56115
2627.35; 186.42458; 13043211.333327
2628.36; 186.93648; 13043401.626596
2629.38; 186.46588; 13043591.440811
2630.40; 185.05596; 13043779.819792
2631.42; 182.86763; 13043965.971152
2632.44; 180.11895; 13044149.324468
2633.45; 177.03486; 13044329.538313
2634.47; 173.81884; 13044506.478389
2635.49; 170.64546; 13044680.188108
2636.51; 167.66386; 13044850.862682
2637.53; 164.99977; 13045018.825329
2638.54; 162.74858; 13045184.496363
2639.56; 160.95985; 13045348.34655
2640.58; 159.62132; 13045510.834167
2641.60; 158.65295; 13045672.336022
2642.62; 157.91856; 13045833.090306
2643.63; 157.25546; 13045993.16958
2644.65; 156.51465; 13046152.494744
2645.67; 155.59987; 13046310.888697
2646.69; 154.49357; 13046468.156481
2647.71; 153.26285; 13046624.171448
2648.72; 152.04487; 13046778.946567
2649.74; 151.01705; 13046932.675403
2650.76; 150.36016; 13047085.735557
2651.78; 150.22219; 13047238.65526
2652.80; 150.688; 13047392.049143
2653.81; 151.75787; 13047546.532105
2654.83; 153.33643; 13047702.621975
2655.85; 155.23431; 13047860.643805
2656.87; 157.1852; 13048020.651552
2657.89; 158.88047; 13048182.385011
2658.90; 160.02016; 13048345.278633
2659.92; 160.3735; 13048508.53194
2660.94; 159.83636; 13048671.23846
2661.96; 158.46968; 13048832.553757
2662.98; 156.50428; 13048991.868361
2663.99; 154.30456; 13049148.943741
2665.01; 152.2947; 13049303.97317
2666.03; 150.86294; 13049457.545132
2667.05; 150.2679; 13049610.511366
2668.06; 150.57268; 13049763.787852
2669.08; 151.6264; 13049918.136983
2670.10; 153.1; 13050073.98618
2671.12; 154.56784; 13050231.32957
2672.14; 155.61313; 13050389.737017
2673.15; 155.92842; 13050548.46542
2674.17; 155.38366; 13050706.639279
2675.19; 154.04419; 13050863.449621
2676.21; 152.13605; 13051018.317552
2677.23; 149.97103; 13051170.981585
2678.24; 147.8555; 13051321.4921
2679.26; 146.01024; 13051470.124223
2680.28; 144.52387; 13051617.243282
2681.30; 143.35085; 13051763.168257
2682.32; 142.35074; 13051908.075166
2683.33; 141.35284; 13052051.966263
2684.35; 140.22366; 13052194.707903
2685.37; 138.9155; 13052336.117883
2686.39; 137.48223; 13052476.068858
2687.41; 136.06015; 13052614.572223
2688.42; 134.82314; 13052751.816361
2689.44; 133.92899; 13052888.150293
2690.46; 133.47517; 13053024.022253
2691.48; 133.47715; 13053159.896229
2692.50; 133.8739; 13053296.174085
2693.51; 134.55562; 13053433.145902
2694.53; 135.40214; 13053570.979439
2695.55; 136.3185; 13053709.745788
2696.57; 137.25682; 13053849.467311
2697.59; 138.21972; 13053990.169026
2698.60; 139.24694; 13054131.916407
2699.62; 140.39208; 13054274.829482
2700.64; 141.69803; 13054419.07196
2701.66; 143.17872; 13054564.821717
2702.68; 144.81119; 13054712.233255
2703.69; 146.53847; 13054861.403093
2704.71; 148.28053; 13055012.346272
2705.73; 149.94898; 13055164.987863
2706.75; 151.46148; 13055319.169117
2707.77; 152.75266; 13055474.664735
2708.78; 153.78007; 13055631.206206
2709.80; 154.52525; 13055788.506246
2710.82; 154.99132; 13055946.280717
2711.84; 155.19911; 13056104.266716
2712.86; 155.18467; 13056262.238014
2713.87; 154.9997; 13056420.02102
2714.89; 154.71563; 13056577.514852
2715.91; 154.42937; 13056734.717286
2716.93; 154.26679; 13056891.754224
2717.94; 154.37858; 13057048.904961
2718.96; 154.92407; 13057206.61098
2719.98; 156.04186; 13057365.454864
2721.00; 157.81145; 13057526.10011
2722.02; 160.21541; 13057689.192487
2723.03; 163.11549; 13057855.237018
2724.05; 166.25515; 13058024.477587
2725.07; 169.29582; 13058196.813426
2726.09; 171.88431; 13058371.784237
2727.11; 173.73809; 13058548.642112
2728.12; 174.72643; 13058726.506081
2729.14; 174.92307; 13058904.570214
2730.16; 174.61072; 13059082.316394
2731.18; 174.23044; 13059259.675464
2732.20; 174.28404; 13059437.0891
2733.21; 175.213; 13059615.448378
2734.23; 177.28556; 13059795.917426
2735.25; 180.52337; 13059979.682431
2736.27; 184.68904; 13060167.687908
2737.29; 189.33902; 13060360.426865
2738.30; 193.92825; 13060557.837455
2739.32; 197.93831; 13060759.330113
2740.34; 200.99501; 13060963.934357
2741.36; 202.94502; 13061170.523631
2742.38; 203.87387; 13061378.058438
2743.39; 204.06439; 13061585.787177
2744.41; 203.91093; 13061793.359701
2745.43; 203.81563; 13062000.835216
2746.45; 204.09513; 13062208.595247
2747.47; 204.92064; 13062417.195619
2748.48; 206.30252; 13062627.202685
2749.50; 208.11675; 13062839.056557
2750.52; 210.15971; 13063052.990073
2751.54; 212.21156; 13063269.012287
2752.56; 214.08938; 13063486.946042
2753.57; 215.67738; 13063706.496312
2754.59; 216.93089; 13063927.322592
2755.61; 217.85969; 13064149.094358
2756.63; 218.50228; 13064371.520254
2757.65; 218.90333; 13064594.354402
2758.66; 219.10341; 13064817.39222
2759.68; 219.14311; 13065040.47045
2760.70; 219.07688; 13065263.481259
2761.72; 218.98712; 13065486.400698
2762.73; 218.98857; 13065709.32161
2763.75; 219.21662; 13065932.474669
2764.77; 219.80004; 13066156.221621
2765.79; 220.82547; 13066381.01242
2766.81; 222.30599; 13066607.310325
2767.82; 224.1661; 13066835.501741
2768.84; 226.25116; 13067065.815658
2769.86; 228.36123; 13067298.277536
2770.88; 230.30081; 13067532.713825
2771.90; 231.93003; 13067768.808591
2772.91; 233.20191; 13068006.198069
2773.93; 234.17473; 13068244.577842
2774.95; 234.99712; 13068483.79477
2775.97; 235.87222; 13068723.90251
2776.99; 237.01413; 13068965.172663
2778.00; 238.61073; 13069208.06809
2779.02; 240.80291; 13069453.195057
2780.04; 243.6822; 13069701.253022
2781.06; 247.30099; 13069952.994764
2782.08; 251.68428; 13070209.198496
2783.09; 256.83269; 13070470.643091
2784.11; 262.71207; 13070738.072641
2785.13; 269.2328; 13071012.140013
2786.15; 276.22941; 13071293.329629
2787.17; 283.45321; 13071581.872771
2788.18; 290.58749; 13071877.6783
2789.20; 297.2862; 13072180.302819
2790.22; 303.22758; 13072488.975415
2791.24; 308.16702; 13072802.676146
2792.26; 311.97194; 13073120.250123
2793.27; 314.62773; 13073440.527576
2794.29; 316.21351; 13073762.419286
2795.31; 316.85796; 13074084.967015
2796.33; 316.69229; 13074407.346102
2797.35; 315.8179; 13074728.835093
2798.36; 314.2992; 13075048.778119
2799.38; 312.18125; 13075366.565159
2800.40; 309.52061; 13075681.643789
2801.42; 306.41259; 13075993.558587
2802.44; 302.99916; 13076301.998661
2803.45; 299.45094; 13076606.826795
2804.47; 295.92825; 13076908.068983
2805.49; 292.53671; 13077205.858728
2806.51; 289.29652; 13077500.350101
2807.52; 286.14068; 13077791.628964
2808.54; 282.94615; 13078079.655937
2809.56; 279.58903; 13078364.265501
2810.58; 276.00431; 13078645.225977
2811.60; 272.22824; 13078922.342576
2812.61; 268.40669; 13079195.569008
2813.63; 264.76537; 13079465.088733
2814.65; 261.55121; 13079731.336578
2815.67; 258.96455; 13079994.951311
2816.69; 257.10426; 13080256.672355
2817.70; 255.9427; 13080517.210983
2818.72; 255.33635; 13080777.132365
2819.74; 255.06629; 13081036.778843
2820.76; 254.89424; 13081296.250178
2821.78; 254.61708; 13081555.43938
2822.79; 254.10677; 13081814.109104
2823.81; 253.32881; 13082071.986897
2824.83; 252.33974; 13082328.857859
2825.85; 251.26819; 13082584.638031
2826.87; 250.28535; 13082839.417722
2827.88; 249.56982; 13083093.469024
2828.90; 249.27081; 13083347.215949
2829.92; 249.4746; 13083601.170329
2830.94; 250.18056; 13083855.843347
2831.96; 251.29483; 13084111.650644
2832.97; 252.64821; 13084368.835616
2833.99; 254.03922; 13084627.436579
2835.01; 255.29464; 13084887.315503
2836.03; 256.33067; 13085148.249064
2837.05; 257.19357; 13085410.061023
2838.06; 258.0613; 13085672.75629
2839.08; 259.19883; 13085936.609517
2840.10; 260.87596; 13086202.169985
2841.12; 263.2712; 13086470.168706
2842.14; 266.39371; 13086741.346006
2843.15; 270.05151; 13087016.246787
2844.17; 273.88053; 13087295.045345
2845.19; 277.42851; 13087577.455594
2846.21; 280.26902; 13087862.757358
2847.23; 282.11022; 13088149.933388
2848.24; 282.86499; 13088437.877741
2849.26; 282.66231; 13088725.615772
2850.28; 281.79973; 13089012.475739
2851.30; 280.65546; 13089298.170891
2852.32; 279.58968; 13089582.781124
2853.33; 278.86514; 13089866.653805
2854.35; 278.60739; 13090150.264101
2855.37; 278.80991; 13090434.080562
2856.39; 279.37496; 13090718.472219
2857.40; 280.1712; 13091003.67441
2858.42; 281.08768; 13091289.809535
2859.44; 282.06832; 13091576.942916
2860.46; 283.1199; 13091865.146759
2861.48; 284.29565; 13092154.547463
2862.49; 285.66361; 13092445.340692
2863.51; 287.27182; 13092737.77101
2864.53; 289.12184; 13093032.084567
2865.55; 291.15857; 13093328.471423
2866.57; 293.27904; 13093627.016831
2867.58; 295.35723; 13093927.677746
2868.60; 297.27699; 13094230.292895
2869.62; 298.96283; 13094534.624152
2870.64; 300.3986; 13094840.416963
2871.66; 301.62837; 13095147.461632
2872.67; 302.74003; 13095455.637924
2873.69; 303.83908; 13095764.933
2874.71; 305.02419; 13096075.434466
2875.73; 306.37545; 13096387.311454
2876.75; 307.96038; 13096700.801833
2877.76; 309.85357; 13097016.219394
2878.78; 312.15723; 13097333.98198
2879.80; 315.00647; 13097654.644969
2880.82; 318.54704; 13097978.912109
2881.84; 322.88463; 13098307.594733
2882.85; 328.01907; 13098641.503994
2883.87; 333.78811; 13098981.285891
2884.89; 339.84818; 13099327.236678
2885.91; 345.71073; 13099679.155284
2886.93; 350.83497; 13100036.290147
2887.94; 354.7568; 13100397.417257
2888.96; 357.21763; 13100761.049387
2889.98; 358.25291; 13101125.735387
2891.00; 358.20989; 13101490.377602
2892.02; 357.68574; 13101854.486249
2893.03; 357.40171; 13102218.305769
2894.05; 358.04905; 13102582.784251
2895.07; 360.14905; 13102949.400445
2896.09; 363.96267; 13103319.898736
2897.11; 369.46622; 13103695.999407
2898.12; 376.38764; 13104079.145787
2899.14; 384.28029; 13104470.326545
2900.16; 392.6051; 13104869.981591
2901.18; 400.7978; 13105277.976461
2902.19; 408.31278; 13105693.621256
2903.21; 414.6504; 13106115.717475
2904.23; 419.38464; 13106542.632941
2905.25; 422.20609; 13106972.420523
2906.27; 422.98378; 13107402.999756
2907.28; 421.83229; 13107832.406827
2908.30; 419.15709; 13108259.090656
2909.32; 415.64742; 13108682.201796
2910.34; 412.19732; 13109101.80088
2911.36; 409.7573; 13109518.916125
2912.37; 409.14595; 13109935.409043
2913.39; 410.87036; 13110353.657344
2914.41; 415.00879; 13110776.118387
2915.43; 421.19432; 13111204.876028
2916.45; 428.70841; 13111641.282686
2917.46; 436.6579; 13112085.781586
2918.48; 444.18162; 13112537.939309
2919.50; 450.62385; 13112996.654939
2920.52; 455.62576; 13113460.462299
2921.54; 459.11766; 13113927.824262
2922.55; 461.23217; 13114397.338708
2923.57; 462.18703; 13114867.825158
2924.59; 462.19365; 13115338.318348
2925.61; 461.43141; 13115808.035609
2926.63; 460.09397; 13116276.391418
2927.64; 458.47771; 13116743.101939
2928.66; 457.05869; 13117208.367964
2929.68; 456.50528; 13117673.070644
2930.70; 457.59813; 13118138.885799
2931.72; 461.06907; 13118608.234212
2932.73; 467.40788; 13119084.035262
2933.75; 476.70528; 13119569.300663
2934.77; 488.59201; 13120066.666242
2935.79; 502.30107; 13120577.987054
2936.81; 516.83498; 13121104.102758
2937.82; 531.18143; 13121644.82253
2938.84; 544.50456; 13122199.104674
2939.86; 556.2516; 13122765.344799
2940.88; 566.15098; 13123341.662067
2941.90; 574.12238; 13123926.093876
2942.91; 580.15362; 13124516.665223
2943.93; 584.20944; 13125111.36522
2944.95; 586.21948; 13125708.111355
2945.97; 586.15467; 13126304.791513
2946.99; 584.15916; 13126899.440333
2948.00; 580.67623; 13127490.543675
2949.02; 576.50261; 13128077.398457
2950.04; 572.72927; 13128660.412134
2951.06; 570.56704; 13129241.224755
2952.07; 571.09926; 13129822.579159
2953.09; 575.03244; 13130407.93737
2954.11; 582.52119; 13131000.918801
2955.13; 593.12301; 13131604.692435
2956.15; 605.89992; 13132221.472403
2957.16; 619.64055; 13132852.239744
2958.18; 633.14321; 13133496.752208
2959.20; 645.48549; 13134153.828587
2960.22; 656.21452; 13134821.826655
2961.24; 665.41713; 13135499.192584
2962.25; 673.66367; 13136184.953131
2963.27; 681.85064; 13136879.047655
2964.29; 690.9884; 13137582.444034
2965.31; 701.98614; 13138297.035632
2966.33; 715.47841; 13139025.361779
2967.34; 731.72156; 13139770.222754
2968.36; 750.56923; 13140534.269841
2969.38; 771.52081; 13141319.64473
2970.40; 793.82696; 13142127.726325
2971.42; 816.63162; 13142959.022078
2972.43; 839.12809; 13143813.218269
2973.45; 860.70572; 13144689.379553
2974.47; 881.06198; 13145586.262631
2975.49; 900.25575; 13146502.684134
2976.51; 918.68375; 13147437.864545
2977.52; 936.97674; 13148391.666438
2978.54; 955.83374; 13149364.663941
2979.56; 975.83567; 13150358.022542
2980.58; 997.29502; 13151373.225839
2981.60; 1020.1957; 13152411.741054
2982.61; 1044.2531; 13153474.745685
2983.63; 1069.083; 13154563.026029
2984.65; 1094.4222; 13155677.100632
2985.67; 1120.3152; 13156817.533191
2986.69; 1147.1792; 13157985.312138
2987.70; 1175.7017; 13159182.125767
2988.72; 1206.5882; 13160410.380488
2989.74; 1240.2479; 13161672.899351
2990.76; 1276.5498; 13162972.371983
2991.78; 1314.7737; 13164310.754876
2992.79; 1353.8208; 13165688.886068
2993.81; 1392.6481; 13167106.541761
2994.83; 1430.7881; 13168563.022273
2995.85; 1468.7559; 13170058.152411
2996.86; 1508.1557; 13171593.389839
2997.88; 1551.3853; 13173172.633177
2998.90; 1600.9802; 13174802.361968
2999.92; 1658.7775; 13176490.925846
3000.94; 1725.1722; 13178247.076676
3001.95; 1798.7352; 13180078.111453
3002.97; 1876.36; 13181988.16495
3003.99; 1953.9386; 13183977.190137
3005.01; 2027.385; 13186040.980603
3006.03; 2093.7002; 13188172.277061
3007.04; 2151.7452; 13190362.660844
3008.06; 2202.4735; 13192604.683815
3009.08; 2248.5402; 13194893.600699
3010.10; 2293.4008; 13197228.183703
3011.12; 2340.1674; 13199610.373097
3012.13; 2390.5642; 13202043.864284
3013.15; 2444.29; 13204532.046011
3014.17; 2498.976; 13207075.895765
3015.19; 2550.7584; 13209672.457779
3016.21; 2595.3167; 13212314.378201
3017.22; 2629.1081; 13214990.69676
3018.24; 2650.477; 13217688.76796
3019.26; 2660.3481; 13220396.887551
3020.28; 2662.3074; 13223107.001629
3021.30; 2662.0206; 13225816.823709
3022.31; 2666.099; 13228530.797425
3023.33; 2680.6692; 13231259.602975
3024.35; 2709.9967; 13234018.262641
3025.37; 2755.5295; 13236823.272776
3026.39; 2815.6444; 13239689.47727
3027.40; 2886.2046; 13242627.50903
3028.42; 2961.8125; 13245642.506309
3029.44; 3037.4197; 13248734.468443
3030.46; 3109.8215; 13251900.132538
3031.48; 3178.5599; 13255135.769322
3032.49; 3245.9155; 13258439.971199
3033.51; 3315.9456; 13261815.460738
3034.53; 3392.8351; 13265269.220429
3035.55; 3479.0702; 13268810.763727
3036.57; 3574.0287; 13272448.970765
3037.58; 3673.4639; 13276188.398494
3038.60; 3770.0788; 13280026.176005
3039.62; 3855.0387; 13283950.43906
3040.64; 3919.9668; 13287940.796072
3041.66; 3958.8269; 13291970.711056
3042.67; 3969.1613; 13296011.145941
3043.69; 3952.3863; 13300034.504648
3044.71; 3913.177; 13304017.94999
3045.73; 3858.2525; 13307945.48456
3046.74; 3795.0275; 13311808.658822
3047.76; 3730.5606; 13315606.208532
3048.78; 3671.0426; 13319343.171495
3049.80; 3621.8093; 13323030.017112
3050.82; 3587.6351; 13326682.074872
3051.83; 3572.9583; 13330319.192256
3052.85; 3581.7396; 13333965.248625
3053.87; 3616.8416; 13337647.037322
3054.89; 3679.0664; 13341392.168147
3055.91; 3766.208; 13345226.00542
3056.92; 3872.5797; 13349168.124466
3057.94; 3989.4102; 13353229.171905
3058.96; 4106.276; 13357409.183723
3059.98; 4213.3945; 13361698.237547
3061.00; 4304.2515; 13366079.779829
3062.01; 4377.7932; 13370536.184436
3063.03; 4439.3827; 13375055.284501
3064.05; 4499.9605; 13379636.05011
3065.07; 4573.3383; 13384291.51112
3066.09; 4672.1689; 13389047.577494
3067.10; 4803.687; 13393937.523543
3068.12; 4966.5875; 13398993.295327
3069.14; 5150.2541; 13404236.03173
3070.16; 5336.9273; 13409668.793406
3071.18; 5506.4799; 13415274.152371
3072.19; 5642.5141; 13421017.988245
3073.21; 5737.8792; 13426858.901623
3074.23; 5797.6995; 13432760.709574
3075.25; 5838.68; 13438704.233825
3076.27; 5884.6457; 13444694.549237
3077.28; 5959.5799; 13450761.144376
3078.30; 6080.3531; 13456950.681429
3079.32; 6251.5278; 13463314.467008
3080.34; 6463.9425; 13469894.481589
3081.36; 6697.4676; 13476712.214565
3082.37; 6926.8661; 13483763.46531
3083.39; 7128.6571; 13491020.130667
3084.41; 7286.6839; 13498437.66045
3085.43; 7394.8073; 13505965.255173
3086.45; 7456.4661; 13513555.61586
3087.46; 7482.183; 13521172.155304
3088.48; 7486.8551; 13528793.450725
3089.50; 7488.4841; 13536416.404364
3090.52; 7508.9502; 13544060.191617
3091.53; 7575.9819; 13551772.214303
3092.55; 7724.332; 13559635.25097
3093.57; 7993.9471; 13567772.744155
3094.59; 8423.8568; 13576347.866867
3095.61; 9042.3273; 13585552.565871
3096.62; 9855.8122; 13595585.357345
3097.64; 10840.513; 13606620.531532
3098.66; 11940.27; 13618775.21122
3099.68; 13072.897; 13632082.856422
3100.70; 14144.399; 13646481.244364
3101.71; 15067.751; 13661819.564927
3102.73; 15781.072; 13677884.014829
3103.75; 16259.881; 13694435.872292
3104.77; 16519.835; 13711252.351612
3105.79; 16609.276; 13728159.877835
3106.80; 16594.173; 13745052.029373
3107.82; 16540.314; 13761889.355055
3108.84; 16498.237; 13778683.848439
3109.86; 16495.106; 13795475.154497
3110.88; 16535.148; 13812307.221838
3111.89; 16607.302; 13829212.738932
3112.91; 16696.483; 13846209.038301
3113.93; 16794.1; 13863304.70695
3114.95; 16904.29; 13880512.544618
3115.97; 17044.325; 13897862.932242
3116.98; 17239.904; 13915412.410505
3118.00; 17517.749; 13933244.72341
3119.02; 17898.461; 13951464.58462
3120.04; 18391.915; 13970186.760155
3121.06; 18996.096; 13989523.966674
3122.07; 19698.813; 14009576.508333
3123.09; 20480.83; 14030425.109027
3124.11; 21318.999; 14052126.930408
3125.13; 22188.665; 14074714.03415
3126.15; 23065.562; 14098193.780445
3127.16; 23928.041; 14122551.494069
3128.18; 24760.324; 14147756.435379
3129.20; 25556.622; 14173771.973515
3130.22; 26324.908; 14200569.59357
3131.24; 27088.326; 14228144.340984
3132.25; 27882.396; 14256527.416657
3133.27; 28747.314; 14285790.941437
3134.29; 29716.557; 14316041.114633
3135.31; 30804.786; 14347399.057631
3136.33; 31999.021; 14379972.679975
3137.34; 33256.624; 14413826.487694
3138.36; 34511.711; 14448957.920115
3139.38; 35688.919; 14485287.699222
3140.40; 36720.863; 14522667.952942
3141.41; 37564.201; 14560906.688406
3142.43; 38209.494; 14599802.304996
3143.45; 38682.036; 14639178.948124
3144.47; 39033.721; 14678913.591693
3145.49; 39328.87; 14718948.684674
3146.50; 39628.573; 14759288.862443
3147.52; 39978.166; 14799984.910313
3148.54; 40400.921; 14841111.304455
3149.56; 40898.675; 14882744.391064
3150.58; 41457.88; 14924946.723575
3151.59; 42058.243; 14967760.200076
3152.61; 42681.076; 15011207.693383
3153.63; 43315.358; 15055300.858791
3154.65; 43960.853; 15100051.110305
3155.67; 44628.564; 15145481.062622
3156.68; 45339.138; 15191634.348705
3157.70; 46119.523; 15238582.033123
3158.72; 46997.741; 15286423.704967
3159.74; 47995.6; 15335281.154915
3160.76; 49119.821; 15385283.013443
3161.77; 50353.175; 15436540.372316
3162.79; 51648.344; 15489116.157958
3163.81; 52927.507; 15542994.076386
3164.83; 54089.684; 15598055.040549
3165.85; 55025.813; 15654068.94339
3166.86; 55638.911; 15710706.954153
3167.88; 55864.603; 15767574.709362
3168.90; 55686.609; 15824261.274256
3169.92; 55142.911; 15880394.377903
3170.94; 54320.833; 15935690.641635
3171.95; 53342.345; 15989990.847033
3172.97; 52343.347; 16043274.115085
3173.99; 51451.731; 16095649.757179
3175.01; 50768.507; 16147329.906571
3176.03; 50354.639; 16198588.756464
3177.04; 50224.497; 16249715.127444
3178.06; 50345.603; 16300964.778836
3179.08; 50644.097; 16352518.284508
3180.10; 51015.639; 16404450.003666
3181.12; 51341.605; 16456713.542411
3182.13; 51509.799; 16509148.295033
3183.15; 51437.249; 16561509.194522
3184.17; 51090.666; 16613517.288128
3185.19; 50498.815; 16664922.902338
3186.20; 49751.529; 16715567.812277
3187.22; 48982.933; 16765430.323916
3188.24; 48340.948; 16814639.322992
3189.26; 47950.084; 16863450.439362
3190.28; 47877.688; 16912187.860027
3191.29; 48113.928; 16961165.76225
3192.31; 48572.18; 17010610.145985
3193.33; 49110.327; 17060602.339205
3194.35; 49566.709; 17111059.109969
3195.37; 49799.778; 17161753.134934
3196.38; 49719.445; 17212365.384734
3197.40; 49301.361; 17262552.042606
3198.42; 48581.482; 17312005.894966
3199.44; 47635.078; 17360496.348846
3200.46; 46549.147; 17407881.371642
3201.47; 45398.404; 17454094.988201
3202.49; 44232.296; 17499121.557142
3203.51; 43075.225; 17542970.277844
3204.53; 41936.635; 17585659.962803
3205.55; 40824.021; 17627217.054375
3206.56; 39751.644; 17667682.51264
3207.58; 38740.593; 17707118.764309
3208.60; 37810.409; 17745608.128838
3209.62; 36966.724; 17783238.659077
3210.64; 36191.394; 17820079.936698
3211.65; 35440.682; 17856157.021853
3212.67; 34653.662; 17891432.953892
3213.69; 33768.633; 17925807.964866
3214.71; 32741.91; 17959137.815987
3215.73; 31562.17; 17991266.742968
3216.74; 30255.119; 18022065.148272
3217.76; 28876.752; 18051460.4361
3218.78; 27497.587; 18079451.793086
3219.80; 26183.252; 18106105.213455
3220.82; 24977.772; 18131531.507719
3221.83; 23894.515; 18155855.092962
3222.85; 22916.814; 18179183.420592
3223.87; 22006.973; 18201585.569106
3224.89; 21119.852; 18223084.666726
3225.91; 20216.348; 18243664.036602
3226.92; 19272.865; 18263282.981716
3227.94; 18284.792; 18281896.111182
3228.96; 17264.225; 18299470.347493
3229.98; 16233.86; 18315995.716233
3231.00; 15219.684; 18331488.697283
3232.01; 14244.789; 18345989.277946
3233.03; 13325.649; 18359554.213308
3234.05; 12471.049; 18372249.203136
3235.07; 11683.03; 18384142.023661
3236.08; 10958.811; 18395297.620671
3237.10; 10292.815; 18405775.262539
3238.12; 9678.289; 18415627.343103
3239.14; 9108.4278; 18424899.329579
3240.16; 8577.1493; 18433630.497414
3241.17; 8079.6747; 18441855.257578
3242.19; 7612.9496; 18449604.911732
3243.21; 7175.7865; 18456909.55279
3244.23; 6768.5723; 18463799.667354
3245.25; 6392.4843; 18470306.940528
3246.26; 6048.3646; 18476463.914647
3247.28; 5735.5983; 18482302.506248
3248.30; 5451.4258; 18487851.822485
3249.32; 5191.0215; 18493136.058357
3250.34; 4948.4192; 18498173.335528
3251.35; 4718.0349; 18502976.091449
3252.37; 4496.275; 18507553.105326
3253.39; 4282.6264; 18511912.634232
3254.41; 4079.7664; 18516065.660385
3255.43; 3892.5562; 18520028.114647
3256.44; 3726.1942; 18523821.219585
3257.46; 3584.1312; 18527469.71048
3258.48; 3466.4751; 18530998.432579
3259.50; 3369.4694; 18534428.407063
3260.52; 3286.2617; 18537773.679703
3261.53; 3208.723; 18541040.021276
3262.55; 3129.6971; 18544225.917843
3263.57; 3044.9047; 18547325.499434
3264.59; 2953.8559; 18550332.397288
3265.61; 2859.4883; 18553243.23298
3266.62; 2766.712; 18556059.62644
3267.64; 2680.4253; 18558788.183733
3268.66; 2603.726; 18561438.664399
3269.68; 2536.9326; 18564021.15227
3270.70; 2477.6944; 18566543.338224
3271.71; 2422.0528; 18569008.883464
3272.73; 2365.9795; 18571417.348498
3273.75; 2306.7813; 18573765.552352
3274.77; 2243.8676; 18576049.712718
3275.79; 2178.6608; 18578267.495442
3276.80; 2113.7771; 18580419.229326
3277.82; 2051.8651; 18582507.939452
3278.84; 1994.5868; 18584538.342793
3279.86; 1942.1209; 18586515.338113
3280.87; 1893.3328; 18588442.669159
3281.89; 1846.4854; 18590322.311614
3282.91; 1800.1654; 18592154.80231
3283.93; 1754.036; 18593940.335236
3284.95; 1709.1186; 18595680.144227
3285.96; 1667.4957; 18597377.582937
3286.98; 1631.5462; 18599038.426583
3288.00; 1602.994; 18600670.205313
3289.02; 1582.1144; 18602280.729463
3290.04; 1567.3867; 18603876.261507
3291.05; 1555.7341; 18605459.931658
3292.07; 1543.2953; 18607030.939718
3293.09; 1526.5025; 18608584.853366
3294.11; 1503.1303; 18610114.97511
3295.13; 1472.986; 18611614.411346
3296.14; 1438.0095; 18613078.242942
3297.16; 1401.7299; 18614505.143515
3298.18; 1368.2283; 18615897.940844
3299.20; 1340.9088; 18617262.928142
3300.22; 1321.4541; 18618608.111437
3301.23; 1309.286; 18619940.908117
3302.25; 1301.7011; 18621265.983644
3303.27; 1294.6396; 18622583.870936
3304.29; 1283.8478; 18623890.77259
3305.31; 1266.0726; 18625179.579834
3306.32; 1239.9291; 18626441.774193
3307.34; 1206.194; 18627669.627643
3308.36; 1167.4689; 18628858.060589
3309.38; 1127.358; 18630005.662417
3310.40; 1089.4409; 18631114.666233
3311.41; 1056.3589; 18632189.99401
3312.43; 1029.2669; 18633237.743285
3313.45; 1007.7587; 18634263.598178
3314.47; 990.21941; 18635271.598803
3315.49; 974.43601; 18636263.532616
3316.50; 958.25258; 18637238.992392
3317.52; 940.08246; 18638195.955771
3318.54; 919.17285; 18639131.63407
3319.56; 895.61224; 18640043.328687
3320.58; 870.14704; 18640929.100824
3321.59; 843.90777; 18641788.16252
3322.61; 818.1374; 18642620.991087
3323.63; 793.97858; 18643429.227023
3324.65; 772.33508; 18644215.430807
3325.67; 753.79227; 18644982.758814
3326.68; 738.57233; 18645734.593578
3327.70; 726.50836; 18646474.147738
3328.72; 717.03973; 18647204.063244
3329.74; 709.24623; 18647926.045305
3330.75; 701.94226; 18648640.592239
3331.77; 693.8415; 18649346.892948
3332.79; 683.77972; 18650042.951199
3333.81; 670.957; 18650725.956467
3334.83; 655.14087; 18651392.861597
3335.84; 636.76808; 18652041.064024
3336.86; 616.89954; 18652669.041134
3337.88; 597.01915; 18653276.780862
3338.90; 578.71314; 18653865.885871
3339.92; 563.30754; 18654439.30864
3340.93; 551.56199; 18655000.774949
3341.95; 543.50865; 18655554.043298
3342.97; 538.48378; 18656102.19655
3343.99; 535.34055; 18656647.150127
3345.01; 532.77281; 18657189.489857
3346.02; 529.64477; 18657728.645381
3347.04; 525.22322; 18658263.299957
3348.06; 519.24842; 18658791.872438
3349.08; 511.84189; 18659312.905392
3350.10; 503.30975; 18659825.252997
3351.11; 493.9349; 18660328.057412
3352.13; 483.84713; 18660820.592911
3353.15; 473.01916; 18661302.106008
3354.17; 461.37754; 18661771.76843
3355.19; 448.965; 18662228.795429
3356.20; 436.06851; 18662672.694354
3357.22; 423.24233; 18663103.536778
3358.24; 411.20269; 18663522.123377
3359.26; 400.62727; 18663929.944647
3360.28; 391.93576; 18664328.918338
3361.29; 385.13913; 18664720.973356
3362.31; 379.81976; 18665107.613485
3363.33; 375.25506; 18665489.606939
3364.35; 370.64277; 18665866.905284
3365.37; 365.34916; 18666238.814966
3366.38; 359.09469; 18666604.357869
3367.40; 352.01684; 18666962.695823
3368.42; 344.59473; 18667313.478384
3369.44; 337.46779; 18667657.006031
3370.46; 331.21365; 18667994.167236
3371.47; 326.15882; 18668326.182841
3372.49; 322.27953; 18668654.249496
3373.51; 319.21709; 18668979.198723
3374.53; 316.39503; 18669301.275211
3375.54; 313.19609; 18669620.095316
3376.56; 309.14358; 18669934.790142
3377.58; 304.03515; 18670244.2848
3378.60; 297.99469; 18670547.63054
3379.62; 291.43316; 18670844.296922
3380.63; 284.93355; 18671134.346984
3381.65; 279.09428; 18671418.452913
3382.67; 274.37313; 18671697.752921
3383.69; 270.97152; 18671973.590239
3384.71; 268.7861; 18672247.202888
3385.72; 267.43674; 18672519.441948
3386.74; 266.36063; 18672790.585577
3387.76; 264.94651; 18673060.289693
3388.78; 262.67517; 18673327.681684
3389.80; 259.23301; 18673591.569704
3390.81; 254.57425; 18673850.715307
3391.83; 248.92118; 18674104.106324
3392.85; 242.70671; 18674351.171282
3393.87; 236.47586; 18674591.893505
3394.89; 230.76979; 18674826.807192
3395.90; 226.01747; 18675056.883219
3396.92; 222.45613; 18675283.333957
3397.94; 220.09427; 18675507.380429
3398.96; 218.72195; 18675730.029936
3399.98; 217.96407; 18675951.907956
3400.99; 217.36466; 18676173.175796
3402.01; 216.48446; 18676393.547639
3403.03; 214.99198; 18676612.400198
3404.05; 212.72889; 18676828.949029
3405.07; 209.73614; 18677042.451365
3406.08; 206.23465; 18677252.38934
3407.10; 202.56477; 18677458.591539
3408.12; 199.09777; 18677661.26448
3409.14; 196.14002; 18677860.92656
3410.16; 193.85287; 18678058.260416
3411.17; 192.20841; 18678253.920286
3412.19; 190.99345; 18678448.343379
3413.21; 189.86212; 18678641.614826
3414.23; 188.42523; 18678833.423579
3415.25; 186.35382; 18679023.12373
3416.26; 183.46939; 18679209.887649
3417.28; 179.7952; 18679392.911408
3418.30; 175.55307; 18679571.616857
3419.32; 171.10459; 18679745.793945
3420.34; 166.85287; 18679915.642972
3421.35; 163.13317; 18680081.705502
3422.37; 160.12551; 18680244.706362
3423.39; 157.81632; 18680405.356568
3424.41; 156.02072; 18680564.178931
3425.42; 154.457; 18680721.409496
3426.44; 152.84734; 18680877.001491
3427.46; 151.00957; 18681030.72272
3428.48; 148.90861; 18681182.305257
3429.50; 146.65069; 18681331.589333
3430.51; 144.4252; 18681478.607954
3431.53; 142.41777; 18681623.583094
3432.55; 140.72893; 18681766.83907
3433.57; 139.32957; 18681908.670555
3434.59; 138.06969; 18682049.21954
3435.60; 136.73638; 18682188.41128
3436.62; 135.13795; 18682325.975884
3437.64; 133.18181; 18682461.549222
3438.66; 130.9168; 18682594.816872
3439.68; 128.52441; 18682725.64918
3440.69; 126.26274; 18682854.179202
3441.71; 124.38341; 18682980.796148
3442.73; 123.05058; 18683106.056334
3443.75; 122.28853; 18683230.540777
3444.77; 121.97308; 18683354.704111
3445.78; 121.86701; 18683478.759463
3446.80; 121.68542; 18683602.629974
3447.82; 121.17021; 18683725.976018
3448.84; 120.15218; 18683848.285748
3449.86; 118.58659; 18683969.001775
3450.87; 116.5569; 18684087.651667
3451.89; 114.2507; 18684203.953953
3452.91; 111.91751; 18684317.881144
3453.93; 109.81969; 18684429.672849
3454.95; 108.18653; 18684539.802072
3455.96; 107.17781; 18684648.904461
3456.98; 106.86032; 18684757.683657
3458.00; 107.19823; 18684866.806832
3459.02; 108.05705; 18684976.804245
3460.04; 109.22024; 18685087.985734
3461.05; 110.41726; 18685200.385737
3462.07; 111.36075; 18685313.74617
3463.09; 111.78925; 18685427.542803
3464.11; 111.51028; 18685541.055455
3465.13; 110.43709; 18685653.475644
3466.14; 108.61214; 18685764.038115
3467.16; 106.21115; 18685872.156486
3468.18; 103.52413; 18685977.539579
3469.20; 100.9137; 18686080.265374
3470.21; 98.756046; 18686180.794767
3471.23; 97.373728; 18686279.91702
3472.25; 96.973286; 18686378.631641
3473.27; 97.600443; 18686477.984681
3474.29; 99.123541; 18686578.888168
3475.30; 101.25037; 18686681.956672
3476.32; 103.57661; 18686787.393188
3477.34; 105.65711; 18686894.947564
3478.36; 107.08574; 18687003.956224
3479.38; 107.56742; 18687113.455215
3480.39; 106.96739; 18687222.343398
3481.41; 105.32769; 18687329.562442
3482.43; 102.84842; 18687434.257693
3483.45; 99.838996; 18687535.889482
3484.47; 96.651785; 18687634.276829
3485.48; 93.613746; 18687729.571582
3486.50; 90.971756; 18687822.176904
3487.52; 88.86284; 18687912.635441
3488.54; 87.313432; 18688001.516747
3489.56; 86.263774; 18688089.329546
3490.57; 85.607007; 18688176.473785
3491.59; 85.229483; 18688263.233721
3492.61; 85.040214; 18688349.800989
3493.63; 84.982578; 18688436.309587
3494.65; 85.028561; 18688522.864993
3495.66; 85.162193; 18688609.55643
3496.68; 85.362092; 18688696.451356
3497.70; 85.592032; 18688783.580352
3498.72; 85.803777; 18688870.924894
3499.74; 85.950246; 18688958.418535
3500.75; 86.002061; 18689045.964922
3501.77; 85.958889; 18689133.467362
3502.79; 85.849369; 18689220.858315
3503.81; 85.718669; 18689308.116221
3504.83; 85.608379; 18689395.261858
3505.84; 85.536938; 18689482.334769
3506.86; 85.488639; 18689569.358514
3507.88; 85.415533; 18689656.307841
3508.90; 85.251093; 18689743.089775
3509.92; 84.929908; 18689829.544756
3510.93; 84.405857; 18689915.466276
3511.95; 83.662898; 18690000.631496
3512.97; 82.716675; 18690084.833501
3513.99; 81.609416; 18690167.908365
3515.00; 80.40294; 18690249.755088
3516.02; 79.173873; 18690330.350674
3517.04; 78.012007; 18690409.763531
3518.06; 77.018885; 18690488.165432
3519.08; 76.30155; 18690565.837117
3520.09; 75.957346; 18690643.158418
3521.11; 76.049726; 18690720.573758
3522.13; 76.580444; 18690798.529345
3523.15; 77.467819; 18690877.388242
3524.17; 78.541568; 18690957.340169
3525.18; 79.561123; 18691038.329959
3526.20; 80.257253; 18691120.028379
3527.22; 80.388646; 18691201.860552
3528.24; 79.798942; 18691283.092432
3529.26; 78.457931; 18691362.95922
3530.27; 76.474227; 18691440.806683
3531.29; 74.074531; 18691516.211359
3532.31; 71.554253; 18691589.050501
3533.33; 69.212469; 18691659.505808
3534.35; 67.288449; 18691728.002545
3535.36; 65.916073; 18691795.102263
3536.38; 65.106679; 18691861.378052
3537.40; 64.762504; 18691927.303487
3538.42; 64.714308; 18691993.17986
3539.44; 64.770832; 18692059.113772
3540.45; 64.765932; 18692125.042695
3541.47; 64.591675; 18692190.794234
3542.49; 64.211353; 18692256.15862
3543.51; 63.652936; 18692320.954563
3544.53; 62.988914; 18692385.074559
3545.54; 62.311011; 18692448.504479
3546.56; 61.707573; 18692511.320125
3547.58; 61.248263; 18692573.668214
3548.60; 60.976718; 18692635.739882
3549.62; 60.908779; 18692697.74239
3550.63; 61.032931; 18692759.87128
3551.65; 61.310825; 18692822.283055
3552.67; 61.67816; 18692885.06876
3553.69; 62.048298; 18692948.23125
3554.71; 62.321418; 18693011.671764
3555.72; 62.400238; 18693075.192514
3556.74; 62.210139; 18693138.51975
3557.76; 61.718248; 18693201.346264
3558.78; 60.944655; 18693263.385293
3559.80; 59.960263; 18693324.422253
3560.81; 58.869921; 18693384.349293
3561.83; 57.784825; 18693443.171751
3562.85; 56.792674; 18693500.984242
3563.87; 55.935715; 18693557.924386
3564.88; 55.204616; 18693614.120303
3565.90; 54.550701; 18693669.650562
3566.92; 53.912394; 18693724.531053
3567.94; 53.24625; 18693778.733437
3568.96; 52.550921; 18693832.228007
3569.97; 51.874692; 18693885.034205
3570.99; 51.303061; 18693937.258507
3572.01; 50.930146; 18693989.103198
3573.03; 50.82379; 18694040.839624
3574.05; 50.99685; 18694092.752217
3575.06; 51.395317; 18694145.070432
3576.08; 51.908271; 18694197.910811
3577.10; 52.39719; 18694251.24889
3578.12; 52.735447; 18694304.931299
3579.14; 52.845223; 18694358.725456
3580.15; 52.71984; 18694412.391978
3581.17; 52.424219; 18694465.75757
3582.19; 52.073369; 18694518.766013
3583.21; 51.795867; 18694571.49197
3584.23; 51.69402; 18694624.114251
3585.24; 51.813161; 18694676.857813
3586.26; 52.129293; 18694729.923184
3587.28; 52.558155; 18694783.425117
3588.30; 52.98196; 18694837.358466
3589.32; 53.284757; 18694891.600049
3590.33; 53.385287; 18694945.943968
3591.35; 53.257803; 18695000.158113
3592.37; 52.935777; 18695054.04445
3593.39; 52.499118; 18695107.486287
3594.41; 52.050313; 18695160.471259
3595.42; 51.687507; 18695213.086911
3596.44; 51.482226; 18695265.493596
3597.46; 51.466837; 18695317.884615
3598.48; 51.633117; 18695370.4449
3599.50; 51.939929; 18695423.317507
3600.51; 52.325964; 18695476.583081
3601.53; 52.723234; 18695530.253058
3602.55; 53.068092; 18695584.274086
3603.57; 53.30832; 18695638.539655
3604.59; 53.406438; 18695692.905104
3605.60; 53.340415; 18695747.203345
3606.62; 53.103206; 18695801.260117
3607.64; 52.702219; 18695854.908702
3608.66; 52.159229; 18695908.004546
3609.67; 51.510508; 18695960.44002
3610.69; 50.806416; 18696012.158759
3611.71; 50.109232; 18696063.167795
3612.73; 49.488049; 18696113.544493
3613.75; 49.010053; 18696163.434612
3614.76; 48.728673; 18696213.038299
3615.78; 48.670657; 18696262.582928
3616.80; 48.825609; 18696312.285291
3617.82; 49.142102; 18696362.30983
3618.84; 49.533663; 18696412.732962
3619.85; 49.895355; 18696463.52428
3620.87; 50.128155; 18696514.552579
3621.89; 50.164884; 18696565.618266
3622.91; 49.989671; 18696616.505594
3623.93; 49.643859; 18696667.0409
3624.94; 49.214972; 18696717.139617
3625.96; 48.810834; 18696766.82694
3626.98; 48.526237; 18696816.224555
3628.00; 48.412633; 18696865.506527
3629.02; 48.460835; 18696914.837566
3630.03; 48.602597; 18696964.312912
3631.05; 48.730674; 18697013.918635
3632.07; 48.730736; 18697063.524421
3633.09; 48.514641; 18697112.910232
3634.11; 48.044527; 18697161.817487
3635.12; 47.340711; 18697210.008288
3636.14; 46.472232; 18697257.315015
3637.16; 45.534698; 18697303.667372
3638.18; 44.623801; 18697349.092476
3639.20; 43.813404; 18697393.69263
3640.21; 43.144375; 18697437.611742
3641.23; 42.625886; 18697481.003055
3642.25; 42.246264; 18697524.007928
3643.27; 41.987558; 18697566.74945
3644.29; 41.837484; 18697609.338203
3645.30; 41.794313; 18697651.88301
3646.32; 41.863625; 18697694.498374
3647.34; 42.049241; 18697737.302687
3648.36; 42.342964; 18697780.405997
3649.38; 42.718087; 18697823.891167
3650.39; 43.130152; 18697867.7958
3651.41; 43.525577; 18697912.102959
3652.43; 43.855683; 18697956.746153
3653.45; 44.091324; 18698001.629218
3654.47; 44.232673; 18698046.65617
3655.48; 44.310022; 18698091.761861
3656.50; 44.37434; 18698136.933024
3657.52; 44.479985; 18698182.21173
3658.54; 44.665036; 18698227.678809
3659.55; 44.93608; 18698273.4218
3660.57; 45.263298; 18698319.497884
3661.59; 45.588404; 18698365.904912
3662.61; 45.843544; 18698412.571662
3663.63; 45.975061; 18698459.37229
3664.64; 45.963815; 18698506.16147
3665.66; 45.834442; 18698552.818954
3666.68; 45.649462; 18698599.288137
3667.70; 45.48946; 18698645.594444
3668.72; 45.425641; 18698691.835787
3669.73; 45.494102; 18698738.146819
3670.75; 45.680876; 18698784.647979
3671.77; 45.923253; 18698831.395869
3672.79; 46.127296; 18698878.351465
3673.81; 46.195858; 18698925.376855
3674.82; 46.057857; 18698972.261766
3675.84; 45.689311; 18699018.771513
3676.86; 45.119705; 18699064.701426
3677.88; 44.422475; 18699109.921588
3678.90; 43.693791; 18699154.399982
3679.91; 43.027421; 18699198.20004
3680.93; 42.494116; 18699241.457216
3681.95; 42.131534; 18699284.345299
3682.97; 41.946365; 18699327.044889
3683.99; 41.925637; 18699369.723378
3685.00; 42.051067; 18699412.52955
3686.02; 42.309768; 18699455.599068
3687.04; 42.696706; 18699499.062473
3688.06; 43.208212; 18699543.046569
3689.08; 43.829888; 18699587.663504
3690.09; 44.524933; 18699632.987964
3691.11; 45.229131; 18699679.029268
3692.13; 45.856444; 18699725.709149
3693.15; 46.315124; 18699772.855946
3694.17; 46.530107; 18699820.221587
3695.18; 46.464627; 18699867.520573
3696.20; 46.133748; 18699914.482737
3697.22; 45.604839; 18699960.906496
3698.24; 44.984228; 18700006.698499
3699.26; 44.393749; 18700051.88942
3700.27; 43.944072; 18700096.622589
3701.29; 43.712446; 18700141.119973
3702.31; 43.730606; 18700185.635843
3703.33; 43.984928; 18700230.410602
3704.34; 44.426889; 18700275.635257
3705.36; 44.989058; 18700321.432177
3706.38; 45.601074; 18700367.852103
3707.40; 46.201417; 18700414.883152
3708.42; 46.743385; 18700462.465901
3709.43; 47.196266; 18700510.509663
3710.45; 47.544063; 18700558.907468
3711.47; 47.783944; 18700607.549461
3712.49; 47.925143; 18700656.335188
3713.51; 47.987448; 18700705.184339
3714.52; 47.997661; 18700754.043886
3715.54; 47.98311; 18700802.888622
3716.56; 47.963139; 18700851.713028
3717.58; 47.941493; 18700900.515399
3718.60; 47.903416; 18700949.27901
3719.61; 47.820258; 18700997.957969
3720.63; 47.661562; 18701046.475382
3721.65; 47.411025; 18701094.737759
3722.67; 47.08007; 18701142.663239
3723.69; 46.712479; 18701190.214526
3724.70; 46.37621; 18701237.423507
3725.72; 46.143373; 18701284.39547
3726.74; 46.064553; 18701331.287196
3727.76; 46.147043; 18701378.262894
3728.78; 46.346299; 18701425.441427
3729.79; 46.575847; 18701472.853629
3730.81; 46.734147; 18701520.426974
3731.83; 46.740134; 18701568.006413
3732.85; 46.56493; 18701615.407502
3733.87; 46.247606; 18701662.48557
3734.88; 45.887904; 18701709.197476
3735.90; 45.616957; 18701755.63357
3736.92; 45.555252; 18701802.00685
3737.94; 45.772205; 18701848.60098
3738.96; 46.261754; 18701895.693449
3739.97; 46.943008; 18701943.479406
3740.99; 47.686239; 18701992.021939
3742.01; 48.35539; 18702041.245639
3743.03; 48.852387; 18702090.975262
3744.05; 49.147932; 18702141.005736
3745.06; 49.288461; 18702191.179262
3746.08; 49.377666; 18702241.443595
3747.10; 49.540103; 18702291.873283
3748.12; 49.880521; 18702342.649501
3749.14; 50.453477; 18702394.008963
3750.15; 51.253257; 18702446.182567
3751.17; 52.226022; 18702499.346404
3752.19; 53.297596; 18702553.601057
3753.21; 54.404756; 18702608.982751
3754.22; 55.517221; 18702665.496887
3755.24; 56.64194; 18702723.155937
3756.26; 57.808808; 18702782.002809
3757.28; 59.044556; 18702842.107619
3758.30; 60.346269; 18702903.537517
3759.31; 61.665994; 18702966.310838
3760.33; 62.913394; 18703030.353958
3761.35; 63.976273; 18703095.479044
3762.37; 64.751892; 18703161.393676
3763.39; 65.177997; 18703227.742065
3764.40; 65.252834; 18703294.166634
3765.42; 65.037681; 18703360.372186
3766.44; 64.641881; 18703426.174831
3767.46; 64.196292; 18703491.523887
3768.48; 63.824398; 18703556.49437
3769.49; 63.619916; 18703621.256699
3770.51; 63.636185; 18703686.03559
3771.53; 63.887597; 18703751.070407
3772.55; 64.35897; 18703816.585061
3773.57; 65.01684; 18703882.769399
3774.58; 65.817575; 18703949.76885
3775.60; 66.710383; 18704017.677141
3776.62; 67.636986; 18704086.528674
3777.64; 68.532156; 18704156.291452
3778.66; 69.329346; 18704226.865735
3779.67; 69.97307; 18704298.0953
3780.69; 70.43576; 18704369.795864
3781.71; 70.733193; 18704441.799203
3782.73; 70.93108; 18704514.003981
3783.75; 71.137027; 18704586.418404
3784.76; 71.476603; 18704659.178502
3785.78; 72.058153; 18704732.530592
3786.80; 72.936197; 18704806.776494
3787.82; 74.085547; 18704882.192383
3788.84; 75.396408; 18704958.942673
3789.85; 76.69496; 18705037.014833
3790.87; 77.78579; 18705116.19741
3791.89; 78.504895; 18705196.112006
3792.91; 78.76738; 18705276.2938
3793.93; 78.594469; 18705356.299578
3794.94; 78.110138; 18705435.812328
3795.96; 77.507; 18705514.711109
3796.98; 76.991022; 18705593.084646
3798.00; 76.72186; 18705671.184189
3799.01; 76.767416; 18705749.330106
3800.03; 77.086925; 18705827.80127
3801.05; 77.547722; 18705906.741504
3802.07; 77.969861; 18705986.111458
3803.09; 78.183798; 18706065.699191
3804.10; 78.082358; 18706145.183662
3805.12; 77.650714; 18706224.228738
3806.14; 76.965991; 18706302.576795
3807.16; 76.168648; 18706380.113192
3808.18; 75.417103; 18706456.884549
3809.19; 74.841982; 18706533.070457
3810.21; 74.515226; 18706608.923742
3811.23; 74.44279; 18706684.703289
3812.25; 74.580433; 18706760.622952
3813.27; 74.863655; 18706836.830923
3814.28; 75.238375; 18706913.420341
3815.30; 75.67991; 18706990.459224
3816.32; 76.193666; 18707068.021089
3817.34; 76.799104; 18707146.199262
3818.36; 77.505757; 18707225.096778
3819.37; 78.293389; 18707304.79607
3820.39; 79.106482; 18707385.323055
3821.41; 79.867002; 18707466.624217
3822.43; 80.501264; 18707548.571029
3823.45; 80.970096; 18707630.995093
3824.46; 81.289134; 18707713.743923
3825.48; 81.529147; 18707796.737077
3826.50; 81.793759; 18707879.999594
3827.52; 82.181071; 18707963.656378
3828.54; 82.742941; 18708047.885122
3829.55; 83.458031; 18708132.841796
3830.57; 84.231041; 18708218.585361
3831.59; 84.921743; 18708305.032031
3832.61; 85.396499; 18708391.961981
3833.63; 85.585882; 18708479.084716
3834.64; 85.528106; 18708566.148637
3835.66; 85.381059; 18708653.06287
3836.68; 85.395049; 18708739.991345
3837.70; 85.851026; 18708827.383985
3838.72; 86.980875; 18708915.926762
3839.73; 88.893362; 18709006.416368
3840.75; 91.528896; 18709099.588835
3841.77; 94.658437; 18709195.947039
3842.79; 97.928831; 18709295.634363
3843.81; 100.94286; 18709398.389835
3844.82; 103.35151; 18709503.597218
3845.84; 104.93232; 18709610.413792
3846.86; 105.63153; 18709717.942129
3847.88; 105.55929; 18709825.396931
3848.89; 104.94116; 18709932.222503
3849.91; 104.04255; 18710038.133325
3850.93; 103.09066; 18710143.075163
3851.95; 102.21849; 18710247.129179
3852.97; 101.44764; 18710350.398495
3853.98; 100.71328; 18710452.920264
3855.00; 99.920709; 18710554.635234
3856.02; 99.011687; 18710655.424858
3857.04; 98.015553; 18710755.200461
3858.06; 97.065155; 18710854.0086
3859.07; 96.36962; 18710952.108715
3860.09; 96.151366; 18711049.986656
3861.11; 96.567935; 18711148.288647
3862.13; 97.645872; 18711247.687932
3863.15; 99.251275; 18711348.721446
3864.16; 101.11039; 18711451.647459
3865.18; 102.87728; 18711556.372095
3866.20; 104.22956; 18711662.473284
3867.22; 104.9628; 18711769.320887
3868.24; 105.05386; 18711876.261188
3869.25; 104.67204; 18711982.81281
3870.27; 104.13373; 18712088.816453
3871.29; 103.81385; 18712194.494477
3872.31; 104.04103; 18712300.403752
3873.33; 105.00811; 18712407.297473
3874.34; 106.72439; 18712515.938294
3875.36; 109.02189; 18712626.917875
3876.38; 111.61104; 18712740.533101
3877.40; 114.16615; 18712856.749318
3878.42; 116.41325; 18712975.252981
3879.43; 118.1942; 18713095.569573
3880.45; 119.49057; 18713217.205815
3881.47; 120.40471; 18713339.772619
3882.49; 121.10917; 18713463.056525
3883.51; 121.78416; 18713587.027543
3884.52; 122.5646; 18713711.793015
3885.54; 123.51214; 18713837.523038
3886.56; 124.61782; 18713964.3786
3887.58; 125.82973; 18714092.467831
3888.60; 127.09203; 18714221.842036
3889.61; 128.37924; 18714352.526559
3890.63; 129.71252; 18714484.568311
3891.65; 131.15277; 18714618.076167
3892.67; 132.77365; 18714753.23401
3893.68; 134.62576; 18714890.277222
3894.70; 136.70575; 18715029.437779
3895.72; 138.94281; 18715170.875561
3896.74; 141.20853; 18715314.619756
3897.76; 143.34821; 18715460.54205
3898.77; 145.22361; 18715608.373418
3899.79; 146.75339; 18715757.762032
3900.81; 147.93748; 18715908.355999
3901.83; 148.85692; 18716059.885924
3902.85; 149.64861; 18716212.221746
3903.86; 150.46257; 18716365.386145
3904.88; 151.4154; 18716519.520486
3905.90; 152.55436; 18716674.814245
3906.92; 153.84339; 18716831.420181
3907.94; 155.17495; 18716989.381582
3908.95; 156.40341; 18717148.593507
3909.97; 157.38914; 18717308.808857
3910.99; 158.03933; 18717469.686079
3912.01; 158.33377; 18717630.863023
3913.03; 158.3285; 18717792.0346
3914.04; 158.13788; 18717953.012134
3915.06; 157.90139; 18718113.748937
3916.08; 157.74542; 18718274.326964
3917.10; 157.75049; 18718434.910152
3918.12; 157.932; 18718595.678114
3919.13; 158.23814; 18718756.757716
3920.15; 158.56453; 18718918.169562
3921.17; 158.78168; 18719079.802459
3922.19; 158.76947; 18719241.422927
3923.21; 158.45179; 18719402.720007
3924.22; 157.82457; 18719563.378611
3925.24; 156.97102; 18719723.168332
3926.26; 156.05893; 18719882.029589
3927.28; 155.31801; 18720040.136621
3928.30; 154.99867; 18720197.918574
3929.31; 155.31907; 18720356.026689
3930.33; 156.41181; 18720515.247165
3931.35; 158.28397; 18720676.373414
3932.37; 160.80345; 18720840.064386
3933.39; 163.71872; 18721006.722979
3934.40; 166.71015; 18721176.426718
3935.42; 169.46133; 18721348.931039
3936.44; 171.73117; 18721523.745964
3937.46; 173.40565; 18721700.265429
3938.48; 174.51277; 18721877.9119
3939.49; 175.1956; 18722056.253456
3940.51; 175.65129; 18722235.058886
3941.53; 176.05649; 18722414.276796
3942.55; 176.50461; 18722593.950868
3943.56; 176.97762; 18722774.106448
3944.58; 177.36382; 18722954.655159
3945.60; 177.51675; 18723135.359547
3946.62; 177.33548; 18723315.879417
3947.64; 176.83715; 18723495.892
3948.65; 176.19327; 18723675.24915
3949.67; 175.71241; 18723854.1168
3950.69; 175.76866; 18724033.041707
3951.71; 176.69463; 18724212.909218
3952.73; 178.6704; 18724394.787977
3953.74; 181.64339; 18724579.693111
3954.76; 185.30638; 18724768.327008
3955.78; 189.14391; 18724960.867351
3956.80; 192.53729; 18725156.862004
3957.82; 194.90102; 18725355.262827
3958.83; 195.81472; 18725554.593761
3959.85; 195.11628; 18725753.213714
3960.87; 192.93346; 18725949.611655
3961.89; 189.64857; 18726142.66572
3962.91; 185.80808; 18726331.810323
3963.92; 182.00197; 18726517.080477
3964.94; 178.74278; 18726699.032912
3965.96; 176.37101; 18726878.570988
3966.98; 175.00513; 18727056.71866
3968.00; 174.54215; 18727234.395037
3969.01; 174.70362; 18727412.235781
3970.03; 175.11348; 18727590.493749
3971.05; 175.38942; 18727769.032612
3972.07; 175.22865; 18727947.407814
3973.09; 174.47152; 18728125.012295
3974.10; 173.13138; 18728301.25257
3975.12; 171.38572; 18728475.715834
3976.14; 169.53169; 18728648.291774
3977.16; 167.91647; 18728819.223495
3978.18; 166.85878; 18728989.078532
3979.19; 166.57994; 18729158.649727
3980.21; 167.16061; 18729328.812018
3981.23; 168.53222; 18729500.370547
3982.25; 170.50271; 18729673.934944
3983.27; 172.80671; 18729849.844717
3984.28; 175.16441; 18730028.154523
3985.30; 177.33266; 18730208.671522
3986.32; 179.13712; 18730391.025383
3987.34; 180.48211; 18730574.748382
3988.35; 181.34345; 18730759.348184
3989.37; 181.75382; 18730944.365729
3990.39; 181.78973; 18731129.419824
3991.41; 181.56375; 18731314.243886
3992.43; 181.21915; 18731498.717161
3993.44; 180.91912; 18731682.885017
3994.46; 180.82343; 18731866.955468
3995.48; 181.05117; 18732051.257746
3996.50; 181.63689; 18732236.156258
3997.52; 182.49526; 18732421.928557
3998.53; 183.4112; 18732608.63324
3999.55; 184.06689; 18732796.005392
4000.57; 184.10548; 18732983.416828
4001.59; 183.21716; 18733169.923988
4002.61; 181.22354; 18733354.401735
4003.62; 178.13425; 18733535.734716
4004.64; 174.15738; 18733713.019413
4005.66; 169.66034; 18733885.726321
4006.68; 165.09363; 18734053.784511
4007.70; 160.90128; 18734217.575068
4008.71; 157.44403; 18734377.846299
4009.73; 154.95369; 18734535.58247
4010.75; 153.5238; 18734691.863076
4011.77; 153.12838; 18734847.741162
4012.79; 153.65244; 18735004.152712
4013.80; 154.91866; 18735161.853221
4014.82; 156.70255; 18735321.369653
4015.84; 158.73899; 18735482.959099
4016.86; 160.73122; 18735646.576549
4017.88; 162.37397; 18735811.866248
4018.89; 163.39569; 18735978.196008
4019.91; 163.61317; 18736144.747153
4020.93; 162.98153; 18736310.655319
4021.95; 161.61846; 18736475.175932
4022.97; 159.78708; 18736637.832287
4023.98; 157.83532; 18736798.50183
4025.00; 156.10553; 18736957.410521
4026.02; 154.84113; 18737115.032113
4027.04; 154.11995; 18737271.919576
4028.06; 153.83641; 18737428.518403
4029.07; 153.73865; 18737585.017717
4030.09; 153.50817; 18737741.282414
4031.11; 152.85549; 18737896.882703
4032.13; 151.60118; 18738051.206162
4033.15; 149.71824; 18738203.612874
4034.16; 147.32609; 18738353.58448
4035.18; 144.64345; 18738500.825275
4036.20; 141.91995; 18738645.293657
4037.22; 139.3706; 18738787.166917
4038.23; 137.1329; 18738926.762294
4039.25; 135.25513; 18739064.446177
4040.27; 133.7125; 18739200.559736
4041.29; 132.43871; 18739335.376631
4042.31; 131.35771; 18739469.093115
4043.32; 130.40443; 18739601.839194
4044.34; 129.53029; 18739733.695437
4045.36; 128.69723; 18739864.70366
4046.38; 127.8681; 18739994.867871
4047.40; 127.00157; 18740124.149991
4048.41; 126.05543; 18740252.468983
4049.43; 124.9971; 18740379.710632
4050.45; 123.81556; 18740505.749533
4051.47; 122.52832; 18740630.478075
4052.49; 121.17878; 18740753.832841
4053.50; 119.82458; 18740875.809095
4054.52; 118.5214; 18740996.458769
4055.54; 117.30916; 18741115.874429
4056.56; 116.20657; 18741234.167707
4057.58; 115.21629; 18741351.452915
4058.59; 114.33769; 18741467.843752
4059.61; 113.58107; 18741583.464378
4060.63; 112.97534; 18741698.468401
4061.65; 112.56427; 18741813.053969
4062.67; 112.39049; 18741927.462641
4063.68; 112.47237; 18742041.954658
4064.70; 112.78214; 18742156.762007
4065.72; 113.23472; 18742272.03007
4066.74; 113.69341; 18742387.765057
4067.76; 113.99335; 18742503.805373
4068.77; 113.97766; 18742619.82971
4069.79; 113.53634; 18742735.404804
4070.81; 112.63696; 18742850.064368
4071.83; 111.33788; 18742963.401522
4072.85; 109.77995; 18743075.152776
4073.86; 108.1587; 18743185.25366
4074.88; 106.68403; 18743293.853397
4075.90; 105.53792; 18743401.286444
4076.92; 104.84003; 18743508.009067
4077.94; 104.62872; 18743614.516585
4078.95; 104.86037; 18743721.25992
4079.97; 105.42518; 18743828.578205
4080.99; 106.17381; 18743936.658563
4082.01; 106.94766; 18744045.526661
4083.02; 107.60537; 18744155.06428
4084.04; 108.04054; 18744265.044884
4085.06; 108.18834; 18744375.175943
4086.08; 108.02219; 18744485.137876
4087.10; 107.54421; 18744594.613244
4088.11; 106.77438; 18744703.304955
4089.13; 105.74331; 18744810.947082
4090.15; 104.49138; 18744917.314802
4091.17; 103.07426; 18745022.23995
4092.19; 101.57157; 18745125.63543
4093.20; 100.09348; 18745227.526276
4094.22; 98.779229; 18745328.079268
4095.24; 97.783927; 18745427.619086
4096.26; 97.253437; 18745526.618888
4097.28; 97.292009; 18745625.657955
4098.29; 97.931203; 18745725.347694
4099.31; 99.110215; 18745826.237616
4100.33; 100.67599; 18745928.721428
4101.35; 102.4066; 18746032.966925
4102.37; 104.05461; 18746138.890031
4103.38; 105.40058; 18746246.183273
4104.40; 106.30266; 18746354.394795
4105.42; 106.72853; 18746463.039833
4106.44; 106.75996; 18746571.716867
4107.46; 106.56825; 18746680.198747
4108.47; 106.36712; 18746788.475884
4109.49; 106.35659; 18746896.7423
4110.51; 106.67388; 18747005.331703
4111.53; 107.36521; 18747114.624853
4112.55; 108.38555; 18747224.956665
4113.56; 109.62457; 18747336.549743
4114.58; 110.94885; 18747449.490887
4115.60; 112.2457; 18747563.752162
4116.62; 113.45409; 18747679.243528
4117.64; 114.57375; 18747795.874666
4118.65; 115.65143; 18747913.602828
4119.67; 116.75185; 18748032.451176
4120.69; 117.92651; 18748152.49527
4121.71; 119.19326; 18748273.828862
4122.73; 120.53533; 18748396.528623
4123.74; 121.91943; 18748520.637339
4124.76; 123.32447; 18748646.17633
4125.78; 124.76692; 18748773.183674
4126.80; 126.30941; 18748901.761204
4127.82; 128.04567; 18749032.106173
4128.83; 130.06487; 18749164.506597
4129.85; 132.40817; 18749299.292397
4130.87; 135.03559; 18749436.752805
4131.89; 137.81931; 18749577.046919
4132.90; 140.5704; 18749720.141517
4133.92; 143.09327; 18749865.804287
4134.94; 145.25008; 18750013.6626
4135.96; 147.01146; 18750163.313927
4136.98; 148.47304; 18750314.453072
4137.99; 149.82859; 18750466.972112
4139.01; 151.30656; 18750620.995662
4140.03; 153.0905; 18750776.835181
4141.05; 155.25123; 18750934.874237
4142.07; 157.71515; 18751095.421454
4143.08; 160.28037; 18751258.579951
4144.10; 162.67573; 18751424.176822
4145.12; 164.64212; 18751591.775392
4146.14; 166.00809; 18751760.764463
4147.16; 166.73456; 18751930.493049
4148.17; 166.91513; 18752100.405452
4149.19; 166.73484; 18752270.134326
4150.21; 166.40429; 18752439.526716
4151.23; 166.09354; 18752608.602776
4152.25; 165.88784; 18752777.469443
4153.26; 165.77769; 18752946.223976
4154.28; 165.68227; 18753114.881374
4155.30; 165.49399; 18753283.34711
4156.32; 165.12612; 18753451.438374
4157.34; 164.54714; 18753618.940264
4158.35; 163.79253; 18753785.673997
4159.37; 162.95418; 18753951.554318
4160.39; 162.15504; 18754116.621151
4161.41; 161.52028; 18754281.041832
4162.43; 161.15442; 18754445.090077
4163.44; 161.12942; 18754609.112869
4164.46; 161.48313; 18754773.495723
4165.48; 162.2234; 18754938.632146
4166.50; 163.33227; 18755104.897352
4167.52; 164.76643; 18755272.622468
4168.53; 166.45363; 18755442.065082
4169.55; 168.28808; 18755613.375083
4170.57; 170.1296; 18755786.559673
4171.59; 171.81117; 18755961.456028
4172.61; 173.15685; 18756137.722228
4173.62; 174.00878; 18756314.855657
4174.64; 174.25825; 18756492.243039
4175.66; 173.87356; 18756669.238822
4176.68; 172.9169; 18756845.260765
4177.69; 171.54439; 18757019.885553
4178.71; 169.98712; 18757192.925108
4179.73; 168.51582; 18757364.466941
4180.75; 167.39623; 18757534.869081
4181.77; 166.84501; 18757704.710097
4182.78; 166.99581; 18757874.704622
4183.80; 167.88242; 18758045.60168
4184.82; 169.44073; 18758218.085031
4185.84; 171.52619; 18758392.691294
4186.86; 173.93981; 18758569.754515
4187.87; 176.45505; 18758749.378142
4188.89; 178.84053; 18758931.430087
4189.91; 180.87738; 18759115.555456
4190.93; 182.37396; 18759301.204279
4191.95; 183.18192; 18759487.675573
4192.96; 183.21554; 18759674.18109
4193.98; 182.47183; 18759859.92954
4195.00; 181.04437; 18760044.224899
4196.02; 179.12179; 18760226.563151
4197.04; 176.96418; 18760406.705049
4198.05; 174.85762; 18760584.702562
4199.07; 173.05551; 18760760.865602
4200.09; 171.72249; 18760935.671683
4201.11; 170.89869; 18761109.639179
4202.13; 170.49714; 18761283.197907
4203.14; 170.3367; 18761456.593318
4204.16; 170.20113; 18761629.850722
4205.18; 169.90483; 18761802.806504
4206.20; 169.34391; 18761975.191299
4207.22; 168.51608; 18762146.733396
4208.23; 167.50441; 18762317.245662
4209.25; 166.43325; 18762486.667524
4210.27; 165.41382; 18762655.051659
4211.29; 164.50027; 18762822.505837
4212.31; 163.67107; 18762989.115922
4213.32; 162.84087; 18763154.880905
4214.34; 161.89581; 18763319.683853
4215.36; 160.73731; 18763483.307494
4216.38; 159.31782; 18763645.486162
4217.40; 157.65635; 18763805.97352
4218.41; 155.8303; 18763964.602042
4219.43; 153.94922; 18764121.315703
4220.45; 152.12134; 18764276.168661
4221.47; 150.42491; 18764429.294728
4222.49; 148.89238; 18764580.860743
4223.50; 147.50961; 18764731.019161
4224.52; 146.22692; 18764879.871852
4225.54; 144.9756; 18765027.450756
4226.56; 143.68405; 18765173.714914
4227.57; 142.28987; 18765318.559865
4228.59; 140.74775; 18765461.834998
4229.61; 139.03461; 18765603.366227
4230.63; 137.15424; 18765742.983327
4231.65; 135.14186; 18765880.551905
4232.66; 133.06716; 18766016.008528
4233.68; 131.03331; 18766149.394781
4234.70; 129.16908; 18766280.883329
4235.72; 127.61315; 18766410.788009
4236.74; 126.49218; 18766539.551587
4237.75; 125.89661; 18766667.708903
4238.77; 125.85994; 18766795.828889
4239.79; 126.347; 18766924.44468
4240.81; 127.25543; 18767053.985218
4241.83; 128.43157; 18767184.723018
4242.84; 129.69851; 18767316.750508
4243.86; 130.89082; 18767449.99171
4244.88; 131.88802; 18767584.248018
4245.90; 132.63837; 18767719.268158
4246.92; 133.16595; 18767854.82535
4247.93; 133.5578; 18767990.781425
4248.95; 133.93318; 18768127.119624
4249.97; 134.40226; 18768263.935326
4250.99; 135.02536; 18768401.385314
4252.01; 135.78498; 18768539.608567
4253.02; 136.57991; 18768678.641023
4254.04; 137.24476; 18768818.35027
4255.06; 137.59097; 18768958.411943
4256.08; 137.45849; 18769098.338752
4257.10; 136.76398; 18769237.558584
4258.11; 135.53219; 18769375.524508
4259.13; 133.90191; 18769511.830873
4260.15; 132.1055; 18769646.308567
4261.17; 130.42818; 18769779.078827
4262.19; 129.15818; 18769910.556282
4263.20; 128.5398; 18770041.404248
4264.22; 128.73901; 18770172.455005
4265.24; 129.82608; 18770304.61235
4266.26; 131.77441; 18770438.753008
4267.28; 134.47131; 18770575.639004
4268.29; 137.73523; 18770715.847522
4269.31; 141.33496; 18770859.720416
4270.33; 145.0093; 18771007.333622
4271.35; 148.48699; 18771158.486966
4272.36; 151.50841; 18771312.715992
4273.38; 153.84897; 18771469.327603
4274.40; 155.34255; 18771627.45962
4275.42; 155.90148; 18771786.160601
4276.44; 155.52816; 18771944.481558
4277.45; 154.31472; 18772101.567287
4278.47; 152.42897; 18772256.733404
4279.49; 150.08852; 18772409.517043
4280.51; 147.52799; 18772559.694166
4281.53; 144.96632; 18772707.263624
4282.54; 142.58155; 18772852.405486
4283.56; 140.49818; 18772995.426572
4284.58; 138.78918; 18773136.707965
4285.60; 137.48977; 18773276.666614
4286.62; 136.61676; 18773415.736576
4287.63; 136.18479; 18773554.366819
4288.65; 136.21189; 18773693.024645
4289.67; 136.71026; 18773832.189794
4290.69; 137.66448; 18773972.326292
4291.71; 139.00514; 18774113.827521
4292.72; 140.59044; 18774256.942523
4293.74; 142.20796; 18774401.704089
4294.76; 143.60366; 18774547.886414
4295.78; 144.53597; 18774695.017796
4296.80; 144.84211; 18774842.460812
4297.81; 144.49574; 18774989.551235
4298.83; 143.63391; 18775135.764355
4299.85; 142.53762; 18775280.861502
4300.87; 141.56432; 18775424.967873
4301.89; 141.04733; 18775568.547968
4302.90; 141.19103; 18775712.274342
4303.92; 141.99587; 18775856.820015
4304.94; 143.24102; 18776002.633187
4305.96; 144.5355; 18776149.764086
4306.98; 145.42679; 18776297.802284
4307.99; 145.5353; 18776445.95094
4309.01; 144.67291; 18776593.221721
4310.03; 142.90698; 18776738.694857
4311.05; 140.54779; 18776881.766439
4312.07; 138.0622; 18777022.307798
4313.08; 135.94035; 18777160.689214
4314.10; 134.55769; 18777297.663138
4315.12; 134.07534; 18777434.146053
4316.14; 134.40857; 18777570.968173
4317.15; 135.26951; 18777708.666693
4318.17; 136.26614; 18777847.379748
4319.19; 137.02186; 18777986.862094
4320.21; 137.27581; 18778126.602944
4321.23; 136.93364; 18778265.995477
4322.24; 136.05754; 18778404.496176
4323.26; 134.80605; 18778541.722921
4324.28; 133.35055; 18778677.468024
4325.30; 131.8007; 18778811.63545
4326.32; 130.16521; 18778944.138018
4327.33; 128.35878; 18779074.801716
4328.35; 126.24885; 18779203.317594
4329.37; 123.72176; 18779329.261002
4330.39; 120.74253; 18779452.171692
4331.41; 117.3868; 18779571.666389
4332.42; 113.83457; 18779687.545066
4333.44; 110.32976; 18779799.856005
4334.46; 107.12054; 18779908.900096
4335.48; 104.40048; 18780015.17528
4336.50; 102.26854; 18780119.280236
4337.51; 100.71754; 18780221.806347
4338.53; 99.650779; 18780323.24654
4339.55; 98.917431; 18780423.940217
4340.57; 98.353334; 18780524.059667
4341.59; 97.814316; 18780623.63042
4342.60; 97.194413; 18780722.570138
4343.62; 96.428041; 18780820.729723
4344.64; 95.481057; 18780917.925318
4345.66; 94.338561; 18781013.957902
4346.68; 92.996651; 18781108.62448
4347.69; 91.46192; 18781201.728768
4348.71; 89.757962; 18781293.0985
4349.73; 87.934481; 18781382.612007
4350.75; 86.0731; 18781470.230709
4351.77; 84.285103; 18781556.029306
4352.78; 82.69943; 18781640.213757
4353.80; 81.44295; 18781723.119166
4354.82; 80.617977; 18781805.184788
4355.84; 80.283058; 18781886.909476
4356.86; 80.442105; 18781968.796068
4357.87; 81.044333; 18782051.295701
4358.89; 81.994383; 18782134.762445
4359.91; 83.169395; 18782219.4253
4360.93; 84.438499; 18782305.380049
4361.95; 85.680363; 18782392.598961
4362.96; 86.795789; 18782480.953329
4363.98; 87.714163; 18782570.242561
4365.00; 88.394244; 18782660.224088
4366.02; 88.820878; 18782750.639909
4367.03; 88.999591; 18782841.237652
4368.05; 88.95091; 18782931.785839
4369.07; 88.705776; 18783022.084492
4370.09; 88.302844; 18783111.972977
4371.11; 87.787788; 18783201.337157
4372.12; 87.21399; 18783290.117235
4373.14; 86.643213; 18783378.316287
4374.16; 86.144326; 18783466.007494
4375.18; 85.788195; 18783553.336174
4376.20; 85.637752; 18783640.51171
4377.21; 85.734077; 18783727.785301
4378.23; 86.081527; 18783815.41258
4379.25; 86.636834; 18783903.605139
4380.27; 87.307524; 18783992.480431
4381.29; 87.963445; 18784082.023422
4382.30; 88.461667; 18784172.073582
4383.32; 88.680341; 18784262.346342
4384.34; 88.553058; 18784352.489534
4385.36; 88.093316; 18784442.164728
4386.38; 87.400179; 18784531.134339
4387.39; 86.641011; 18784619.33115
4388.41; 86.013973; 18784706.889662
4389.43; 85.699648; 18784794.128206
4390.45; 85.815225; 18784881.484402
4391.47; 86.384606; 18784969.420203
4392.48; 87.333381; 18785058.321816
4393.50; 88.510186; 18785148.421366
4394.52; 89.727993; 18785239.760591
4395.54; 90.813104; 18785332.204412
4396.56; 91.647801; 18785425.497919
4397.57; 92.195286; 18785519.348741
4398.59; 92.501533; 18785613.51131
4399.61; 92.675753; 18785707.851227
4400.63; 92.857039; 18785802.375686
4401.65; 93.177591; 18785897.226453
4402.66; 93.732307; 18785992.641898
4403.68; 94.561266; 18786088.901186
4404.70; 95.647155; 18786186.265862
4405.72; 96.925774; 18786284.932117
4406.74; 98.305262; 18786385.002631
4407.75; 99.688974; 18786486.481705
4408.77; 100.99743; 18786589.292736
4409.79; 102.18572; 18786693.313384
4410.81; 103.25352; 18786798.421014
4411.82; 104.24599; 18786904.538938
4412.84; 105.24425; 18787011.673046
4413.86; 106.34632; 18787119.929005
4414.88; 107.64139; 18787229.503299
4415.90; 109.18301; 18787340.646889
4416.91; 110.9681; 18787453.60763
4417.93; 112.92914; 18787568.564622
4418.95; 114.9435; 18787685.57215
4419.97; 116.85999; 18787804.53058
4420.99; 118.53671; 18787925.195836
4422.00; 119.88044; 18788047.228956
4423.02; 120.87603; 18788170.275537
4424.04; 121.59634; 18788294.05536
4425.06; 122.18875; 18788418.438234
4426.08; 122.84081; 18788543.484883
4427.09; 123.73406; 18788669.440818
4428.11; 124.99851; 18788796.683908
4429.13; 126.68034; 18788925.639025
4430.15; 128.73125; 18789056.681878
4431.17; 131.022; 18789190.056616
4432.18; 133.3758; 18789325.827424
4433.20; 135.6122; 18789463.87479
4434.22; 137.58956; 18789603.935026
4435.24; 139.23528; 18789745.670528
4436.26; 140.55625; 18789888.750727
4437.27; 141.62774; 18790032.921657
4438.29; 142.56411; 18790178.045768
4439.31; 143.47992; 18790324.102131
4440.33; 144.45231; 18790471.148352
4441.35; 145.4956; 18790619.256598
4442.36; 146.55584; 18790768.444117
4443.38; 147.52785; 18790918.621107
4444.40; 148.29054; 18791069.57448
4445.42; 148.75007; 18791220.995637
4446.44; 148.87742; 18791372.546426
4447.45; 148.72705; 18791523.944142
4448.47; 148.42895; 18791675.038411
4449.49; 148.15457; 18791825.853374
4450.51; 148.06641; 18791976.578589
4451.53; 148.26784; 18792127.508848
4452.54; 148.77089; 18792278.951192
4453.56; 149.4945; 18792431.130146
4454.58; 150.29537; 18792584.12435
4455.60; 151.02125; 18792737.857466
4456.62; 151.56742; 18792892.146561
4457.63; 151.91449; 18793046.788957
4458.65; 152.13162; 18793201.652386
4459.67; 152.34215; 18793356.730115
4460.69; 152.66327; 18793512.134735
4461.70; 153.14332; 18793668.028023
4462.72; 153.72271; 18793824.511104
4463.74; 154.23779; 18793981.518522
4464.76; 154.47125; 18794138.763594
4465.78; 154.23452; 18794295.767681
4466.79; 153.45378; 18794451.977011
4467.81; 152.22699; 18794606.93752
4468.83; 150.82708; 18794760.472981
4469.85; 149.64435; 18794912.804474
4470.87; 149.0821; 18795064.563618
4471.88; 149.43699; 18795216.684026
4472.90; 150.80247; 18795370.194431
4473.92; 153.02734; 18795525.969658
4474.94; 155.7443; 18795684.510632
4475.96; 158.46066; 18795845.816742
4476.97; 160.68353; 18796009.385638
4477.99; 162.04131; 18796174.336703
4479.01; 162.3655; 18796339.617777
4480.03; 161.7108; 18796504.232395
4481.05; 160.31222; 18796667.423315
4482.06; 158.49758; 18796828.767012
4483.08; 156.58678; 18796988.165599
4484.10; 154.81048; 18797145.75599
4485.12; 153.27159; 18797301.77985
4486.14; 151.95611; 18797456.464609
4487.15; 150.78258; 18797609.954769
4488.17; 149.66673; 18797762.309039
4489.19; 148.57503; 18797913.552009
4490.21; 147.54756; 18798063.749058
4491.23; 146.68391; 18798213.06695
4492.24; 146.10107; 18798361.791536
4493.26; 145.88286; 18798510.293994
4494.28; 146.04318; 18798658.959644
4495.30; 146.5189; 18798808.109561
4496.32; 147.1957; 18798957.948428
4497.33; 147.95595; 18799108.561203
4498.35; 148.72857; 18799259.960469
4499.37; 149.51899; 18799412.164352
4500.39; 150.40553; 18799565.270693
4501.41; 151.50167; 18799719.492858
4502.42; 152.89851; 18799875.136941
4503.44; 154.61047; 18800032.523726
4504.46; 156.54756; 18800191.882391
4505.48; 158.52775; 18800353.256803
4506.49; 160.32751; 18800516.463288
4507.51; 161.75316; 18800681.121024
4508.53; 162.70647; 18800846.749185
4509.55; 163.21898; 18801012.899063
4510.57; 163.4411; 18801179.275049
4511.58; 163.58883; 18801345.801416
4512.60; 163.86771; 18801512.611678
4513.62; 164.40238; 18801679.966211
4514.64; 165.19816; 18801848.130812
4515.66; 166.14892; 18802017.263243
4516.67; 167.08755; 18802187.351156
4517.69; 167.85912; 18802358.224494
4518.71; 168.38847; 18802529.636686
4519.73; 168.71645; 18802701.382757
4520.75; 168.99158; 18802873.408893
4521.76; 169.42058; 18803045.871728
4522.78; 170.19667; 18803219.124591
4523.80; 171.43145; 18803393.634406
4524.82; 173.11366; 18803569.85664
4525.84; 175.10721; 18803748.108223
4526.85; 177.18618; 18803928.476109
4527.87; 179.09243; 18804110.784476
4528.89; 180.59569; 18804294.623099
4529.91; 181.53836; 18804479.421317
4530.93; 181.85543; 18804664.542295
4531.94; 181.5701; 18804849.372821
4532.96; 180.77331; 18805033.392249
4533.98; 179.59802; 18805216.215285
4535.00; 178.19667; 18805397.611808
4536.02; 176.72472; 18805577.509952
4537.03; 175.32821; 18805755.986504
4538.05; 174.13105; 18805933.244395
4539.07; 173.2196; 18806109.574473
4540.09; 172.62629; 18806285.300587
4541.11; 172.31826; 18806460.713137
4542.12; 172.19866; 18806636.003947
4543.14; 172.12565; 18806811.220428
4544.16; 171.94784; 18806986.255908
4545.18; 171.5481; 18807160.884469
4546.20; 170.88193; 18807334.834896
4547.21; 169.99631; 18807507.883807
4548.23; 169.01978; 18807679.938645
4549.25; 168.12335; 18807851.080957
4550.27; 167.46263; 18808021.550688
4551.29; 167.11866; 18808191.670276
4552.30; 167.05741; 18808361.727508
4553.32; 167.12302; 18808531.851529
4554.34; 167.06984; 18808701.92142
4555.36; 166.62557; 18808871.53906
4556.37; 165.56741; 18809040.079538
4557.39; 163.7881; 18809206.808752
4558.41; 161.33099; 18809371.036737
4559.43; 158.38274; 18809532.263534
4560.45; 155.22527; 18809690.276156
4561.46; 152.16136; 18809845.169851
4562.48; 149.43652; 18809997.289784
4563.50; 147.1802; 18810147.112878
4564.52; 145.38281; 18810295.106301
4565.54; 143.91313; 18810441.603661
4566.55; 142.56773; 18810586.731457
4567.57; 141.13435; 18810730.400134
4568.59; 139.44861; 18810872.352803
4569.61; 137.42713; 18811012.247689
4570.63; 135.06989; 18811149.743008
4571.64; 132.43581; 18811284.556946
4572.66; 129.60405; 18811416.488273
4573.68; 126.63713; 18811545.399408
4574.70; 123.55919; 18811671.177329
4575.72; 120.35536; 18811793.693893
4576.73; 116.98989; 18811912.78455
4577.75; 113.43353; 18812028.254985
4578.77; 109.68861; 18812139.913256
4579.79; 105.8021; 18812247.615232
4580.81; 101.86261; 18812351.306976
4581.82; 97.98346; 18812451.04991
4582.84; 94.278694; 18812547.021552
4583.86; 90.840296; 18812639.493053
4584.88; 87.723259; 18812728.791545
4585.90; 84.941479; 18812815.258306
4586.91; 82.473552; 18812899.212823
4587.93; 80.274834; 18812980.92914
4588.95; 78.291384; 18813060.626391
4589.97; 76.472237; 18813138.471828
4590.99; 74.778072; 18813214.592678
4592.00; 73.185814; 18813289.092678
4593.02; 71.68945; 18813362.069445
4594.04; 70.297478; 18813433.629244
4595.06; 69.027304; 18813503.89606
4596.08; 67.897103; 18813573.012381
4597.09; 66.916306; 18813641.130293
4598.11; 66.076783; 18813708.393607
4599.13; 65.347355; 18813774.914394
4600.15; 64.674029; 18813840.749765
4601.16; 63.987064; 18813905.885836
4602.18; 63.213948; 18813970.234907
4603.20; 62.295313; 18814033.648847
4604.22; 61.199488; 18814095.947285
4605.24; 59.931355; 18814156.954818
4606.25; 58.532595; 18814216.538474
4607.27; 57.072805; 18814274.636126
4608.29; 55.633585; 18814331.268715
4609.31; 54.289813; 18814386.533402
4610.33; 53.093136; 18814440.579923
4611.34; 52.062156; 18814493.576951
4612.36; 51.181933; 18814545.67795
4613.38; 50.412798; 18814596.996003
4614.40; 49.705856; 18814647.59442
4615.42; 49.020576; 18814697.495251
4616.43; 48.339172; 18814746.702442
4617.45; 47.673304; 18814795.231808
4618.47; 47.060779; 18814843.13765
4619.49; 46.552976; 18814890.526571
4620.51; 46.196612; 18814937.552729
4621.52; 46.01545; 18814984.394471
4622.54; 45.997772; 18815031.218218
4623.56; 46.093787; 18815078.139705
4624.58; 46.224088; 18815125.193832
4625.60; 46.296738; 18815172.321914
4626.61; 46.227893; 18815219.379915
4627.63; 45.959891; 18815266.165101
4628.65; 45.471884; 18815312.453517
4629.67; 44.780835; 18815358.038474
4630.69; 43.933937; 18815402.761326
4631.70; 42.996071; 18815446.529471
4632.72; 42.03674; 18815489.321058
4633.74; 41.12; 18815531.179443
4634.76; 40.298726; 18815572.201807
4635.78; 39.612329; 18815612.525449
4636.79; 39.085766; 18815652.313072
4637.81; 38.727945; 18815691.736449
4638.83; 38.52918; 18815730.957492
4639.85; 38.459201; 18815770.107299
4640.87; 38.468381; 18815809.266451
4641.88; 38.494399; 18815848.452089
4642.90; 38.474602; 18815887.617573
4643.92; 38.361587; 18815926.668013
4644.94; 38.137317; 18815965.490156
4645.96; 37.820476; 18816003.989769
4646.97; 37.463426; 18816042.12592
4647.99; 37.138438; 18816079.931247
4649.01; 36.916798; 18816117.510955
4650.03; 36.847222; 18816155.019836
4651.04; 36.940703; 18816192.623878
4652.06; 37.166991; 18816230.458271
4653.08; 37.46402; 18816268.595026
4654.10; 37.757233; 18816307.03026
4655.12; 37.9824; 18816345.694704
4656.13; 38.104485; 18816384.483426
4657.15; 38.126663; 18816423.294724
4658.17; 38.087079; 18816462.065726
4659.19; 38.045109; 18816500.794006
4660.21; 38.062147; 18816539.539629
4661.22; 38.183313; 18816578.408594
4662.24; 38.425552; 18816617.524148
4663.26; 38.774928; 18816656.995352
4664.28; 39.192642; 18816696.89177
4665.30; 39.626544; 18816737.229882
4666.31; 40.023765; 18816777.972348
4667.33; 40.340568; 18816819.037305
4668.35; 40.547457; 18816860.312866
4669.37; 40.629823; 18816901.672272
4670.39; 40.586133; 18816942.987205
4671.40; 40.426145; 18816984.139276
4672.42; 40.170714; 18817025.03133
4673.44; 39.853052; 18817065.600017
4674.46; 39.519592; 18817105.829257
4675.48; 39.227847; 18817145.761512
4676.49; 39.039296; 18817185.50183
4677.51; 39.007314; 18817225.209592
4678.53; 39.162624; 18817265.075453
4679.55; 39.500789; 18817305.285551
4680.57; 39.976726; 18817345.980133
4681.58; 40.50977; 18817387.217331
4682.60; 40.999703; 18817428.953259
4683.62; 41.350409; 18817471.046191
4684.64; 41.494808; 18817513.286115
4685.66; 41.413628; 18817555.443402
4686.67; 41.142005; 18817597.324187
4687.69; 40.761434; 18817638.817568
4688.71; 40.379134; 18817679.921785
4689.73; 40.100787; 18817720.742655
4690.75; 40.004608; 18817761.46562
4691.76; 40.124023; 18817802.310144
4692.78; 40.443197; 18817843.479573
4693.80; 40.905469; 18817885.119575
4694.82; 41.43078; 18817927.294322
4695.83; 41.935934; 18817969.983293
4696.85; 42.351512; 18818013.095305
4697.87; 42.63136; 18818056.492189
4698.89; 42.753754; 18818100.013666
4699.91; 42.716361; 18818143.497078
4700.92; 42.528839; 18818186.7896
4701.94; 42.20693; 18818229.754434
4702.96; 41.770321; 18818272.274818
4703.98; 41.244277; 18818314.259712
4705.00; 40.663054; 18818355.652946
4706.01; 40.072133; 18818396.444647
4707.03; 39.526752; 18818436.681176
4708.05; 39.085753; 18818476.468785
4709.07; 38.801704; 18818515.967246
4710.09; 38.70996; 18818555.372314
4711.10; 38.819979; 18818594.889378
4712.12; 39.111826; 18818634.703528
4713.14; 39.539315; 18818674.952845
4714.16; 40.039355; 18818715.711181
4715.18; 40.545183; 18818756.984427
4716.19; 41.000015; 18818798.720674
4717.21; 41.367414; 18818840.830916
4718.23; 41.635507; 18818883.214065
4719.25; 41.813886; 18818925.778797
4720.27; 41.924114; 18818968.455736
4721.28; 41.986708; 18819011.196393
4722.30; 42.00877; 18819053.959508
4723.32; 41.97649; 18819096.689763
4724.34; 41.855615; 18819139.296973
4725.36; 41.600666; 18819181.644657
4726.37; 41.1709; 18819223.554857
4727.39; 40.548541; 18819264.831521
4728.41; 39.753436; 18819305.298804
4729.43; 38.848695; 18819344.845099
4730.45; 37.934008; 18819383.460282
4731.46; 37.126815; 18819421.253777
4732.48; 36.535254; 18819458.445089
4733.50; 36.229699; 18819495.325359
4734.52; 36.220772; 18819532.196542
4735.54; 36.450472; 18819569.301549
4736.55; 36.799814; 18819606.762172
4737.57; 37.111997; 18819644.540584
4738.59; 37.225859; 18819682.434901
4739.61; 37.011521; 18819720.111033
4740.63; 36.399464; 18819757.164117
4741.64; 35.3959; 18819793.195615
4742.66; 34.080869; 18819827.888469
4743.68; 32.589795; 18819861.063474
4744.70; 31.083238; 18819892.704868
4745.71; 29.712254; 18819922.950661
4746.73; 28.587478; 18819952.05148
4747.75; 27.7588; 18819980.30874
4748.77; 27.209706; 18820008.007046
4749.79; 26.866755; 18820035.356243
4750.80; 26.621162; 18820062.455438
4751.82; 26.356835; 18820089.285558
4752.84; 25.978001; 18820115.730042
4753.86; 25.430017; 18820141.616702
4754.88; 24.708853; 18820166.769248
4755.89; 23.857668; 18820191.055324
4756.91; 22.952129; 18820214.419601
4757.93; 22.078807; 18820236.894874
4758.95; 21.312564; 18820258.590145
4759.97; 20.69881; 18820279.660641
4760.98; 20.244938; 18820300.269114
4762.00; 19.922557; 18820320.549418
4763.02; 19.679114; 18820340.581906
4764.04; 19.454933; 18820360.386188
4765.06; 19.20045; 18820379.931418
4766.07; 18.888671; 18820399.15927
4767.09; 18.519643; 18820418.011467
4768.11; 18.116306; 18820436.453084
4769.13; 17.713764; 18820454.484932
4770.15; 17.345818; 18820472.142226
4771.16; 17.033174; 18820489.481262
4772.18; 16.776853; 18820506.559375
4773.20; 16.55841; 18820523.415122
4774.22; 16.346315; 18820540.054966
4775.24; 16.105966; 18820556.450144
4776.25; 15.809892; 18820572.543932
4777.27; 15.444995; 18820588.26627
4778.29; 15.014937; 18820603.550828
4779.31; 14.537525; 18820618.349401
4780.33; 14.038567; 18820632.640056
4781.34; 13.544627; 18820646.427902
4782.36; 13.077111; 18820659.739838
4783.38; 12.649335; 18820672.616315
4784.40; 12.266927; 18820685.103517
4785.42; 11.930658; 18820697.248413
4786.43; 11.640011; 18820709.097441
4787.45; 11.395739; 18820720.697812
4788.47; 11.200286; 18820732.09922
4789.49; 11.055982; 18820743.353732
4790.50; 10.961923; 18820754.512497
4791.52; 10.911081; 18820765.619507
4792.54; 10.889142; 18820776.704184
4793.56; 10.875918; 18820787.775399
4794.58; 10.849207; 18820798.819424
4795.59; 10.789983; 18820809.803161
4796.61; 10.687205; 18820820.682274
4797.63; 10.540615; 18820831.412166
4798.65; 10.360521; 18820841.958729
4799.67; 10.164554; 18820852.305806
4800.68; 9.9724486; 18820862.457328
4801.70; 9.8004999; 18820872.433814
4802.72; 9.6574457; 18820882.264677
4803.74; 9.5429855; 18820891.979025
4804.76; 9.4492341; 18820901.597937
4805.77; 9.3644305; 18820911.130523
4806.79; 9.277526; 18820920.574645
4807.81; 9.1820668; 18820929.921592
4808.83; 9.0781213; 18820939.162728
4809.85; 8.9717267; 18820948.295559
4810.86; 8.8721787; 18820957.327054
4811.88; 8.7881815; 18820966.273043
4812.90; 8.7242016; 18820975.153904
4813.92; 8.6782482; 18820983.987986
4814.94; 8.6418085; 18820992.784975
4815.95; 8.601976; 18821001.541415
4816.97; 8.5451362; 18821010.239995
4817.99; 8.4611155; 18821018.853045
4819.01; 8.3465752; 18821027.349499
4820.03; 8.2066459; 18821035.70351
4821.04; 8.054293; 18821043.902433
4822.06; 7.907519; 18821051.951946
4823.08; 7.7850918; 18821059.876834
4824.10; 7.7018819; 18821067.717017
4825.12; 7.6649947; 18821075.519651
4826.13; 7.6716885; 18821083.329099
4827.15; 7.7096112; 18821091.17715
4828.17; 7.7593076; 18821099.07579
4829.19; 7.7983899; 18821107.014215
4830.21; 7.8063654; 18821114.960758
4831.22; 7.768985; 18821122.869249
4832.24; 7.6811208; 18821130.688299
4833.26; 7.5475643; 18821138.371394
4834.28; 7.3816397; 18821145.885585
4835.30; 7.2020311; 18821153.216941
4836.31; 7.0286079; 18821160.371761
4837.33; 6.8782227; 18821167.373495
4838.35; 6.761423; 18821174.256332
4839.37; 6.6807809; 18821181.057078
4840.38; 6.6311544; 18821187.807307
4841.40; 6.6017393; 18821194.527593
4842.42; 6.5793397; 18821201.225077
4843.44; 6.5519831; 18821207.894713
4844.46; 6.5119174; 18821214.523564
4845.47; 6.4571908; 18821221.096706
4846.49; 6.3914122; 18821227.602887
4847.51; 6.3218293; 18821234.038237
4848.53; 6.2563821; 18821240.406964
4849.55; 6.200723; 18821246.719032
4850.56; 6.1562134; 18821252.985792
4851.58; 6.1195713; 18821259.215251
4852.60; 6.0842673; 18821265.408773
4853.62; 6.0431219; 18821271.56041
4854.64; 5.9911098; 18821277.659102
4855.65; 5.9272878; 18821283.692825
4856.67; 5.8550896; 18821289.653053
4857.69; 5.7808648; 18821295.537724
4858.71; 5.7112311; 18821301.351511
4859.73; 5.6502922; 18821307.103265
4860.74; 5.5978447; 18821312.801629
4861.76; 5.5493237; 18821318.450601
4862.78; 5.4975511; 18821324.046871
4863.80; 5.4356407; 18821329.580119
4864.82; 5.3599456; 18821335.036312
4865.83; 5.27191; 18821340.402889
4866.85; 5.1781056; 18821345.673977
4867.87; 5.0884249; 18821350.853774
4868.89; 5.0130956; 18821355.956889
4869.91; 4.9595937; 18821361.005541
4870.92; 4.9305228; 18821366.024601
4871.94; 4.9231221; 18821371.036126
4872.96; 4.9304362; 18821376.055098
4873.98; 4.9435956; 18821381.087465
4875.00; 4.9543344; 18821386.130763
4876.01; 4.9569084; 18821391.176682
4877.03; 4.9489234; 18821396.214473
4878.05; 4.9310585; 18821401.234077
4879.07; 4.9060688; 18821406.228244
4880.09; 4.877621; 18821411.193451
4881.10; 4.8494186; 18821416.12995
4882.12; 4.8247934; 18821421.041382
4883.14; 4.806642; 18821425.934336
4884.16; 4.7974074; 18821430.81789
4885.17; 4.7988343; 18821435.702896
4886.19; 4.8114242; 18821440.600718
4887.21; 4.8337775; 18821445.521295
4888.23; 4.8621793; 18821450.470784
4889.25; 4.8907824; 18821455.449389
4890.26; 4.9125396; 18821460.450143
4891.28; 4.9207268; 18821465.45923
4892.30; 4.9106182; 18821470.458028
4893.32; 4.8807528; 18821475.426423
4894.34; 4.8333309; 18821480.346545
4895.35; 4.7735736; 18821485.205837
4896.37; 4.7082457; 18821489.998628
4897.39; 4.6438424; 18821494.72586
4898.41; 4.5850447; 18821499.393237
4899.43; 4.5339275; 18821504.00858
4900.44; 4.4900969; 18821508.579305
4901.46; 4.4515801; 18821513.110821
4902.48; 4.4160264; 18821517.606145
4903.50; 4.3817004; 18821522.066527
4904.52; 4.3478925; 18821526.492494
4905.53; 4.3146557; 18821530.884628
4906.55; 4.2820845; 18821535.243605
4907.57; 4.2495547; 18821539.569468
4908.59; 4.2153551; 18821543.860518
4909.61; 4.1769637; 18821548.112487
4910.62; 4.1319368; 18821552.31862
4911.64; 4.0790939; 18821556.470962
4912.66; 4.0195291; 18821560.562669
4913.68; 3.9570048; 18821564.590729
4914.70; 3.8974898; 18821568.558205
4915.71; 3.8479041; 18821572.475206
4916.73; 3.8144144; 18821576.358115
4917.75; 3.8007905; 18821580.227156
4918.77; 3.8073177; 18821584.102841
4919.79; 3.8305904; 18821588.002217
4920.80; 3.8642364; 18821591.935843
4921.82; 3.9003482; 18821595.906229
4922.84; 3.9312105; 18821599.908032
4923.86; 3.9508573; 18821603.929834
4924.88; 3.9560817; 18821607.956954
4925.89; 3.9467043; 18821611.974529
4926.91; 3.9251224; 18821615.970134
4927.93; 3.8953474; 18821619.93543
4928.95; 3.8618415; 18821623.866618
4929.97; 3.8284734; 18821627.763838
4930.98; 3.7978341; 18821631.62987
4932.00; 3.7710222; 18821635.468607
4933.02; 3.747865; 18821639.283772
4934.04; 3.7274249; 18821643.07813
4935.05; 3.7085805; 18821646.853305
4936.07; 3.6904804; 18821650.610055
4937.09; 3.6727368; 18821654.348742
4938.11; 3.6553333; 18821658.069714
4939.13; 3.6383288; 18821661.773376
4940.14; 3.6215172; 18821665.459924
4941.16; 3.6042149; 18821669.128859
4942.18; 3.5853002; 18821672.77854
4943.20; 3.5635255; 18821676.406055
4944.22; 3.5380124; 18821680.007599
4945.23; 3.5087512; 18821683.579357
4946.25; 3.4769064; 18821687.118697
4947.27; 3.4447791; 18821690.625334
4948.29; 3.4153881; 18821694.102052
4949.31; 3.3917662; 18821697.554723
4950.32; 3.3761702; 18821700.991519
4951.34; 3.3694477; 18821704.421471
4952.36; 3.3707594; 18821707.852759
4953.38; 3.3777514; 18821711.291164
4954.40; 3.3871258; 18821714.739112
4955.41; 3.3954388; 18821718.195522
4956.43; 3.3998851; 18821721.656458
4957.45; 3.3988419; 18821725.116333
4958.47; 3.3920282; 18821728.569271
4959.49; 3.3802645; 18821732.010234
4960.50; 3.3649394; 18821735.435597
4961.52; 3.3473804; 18821738.843086
4962.54; 3.3283379; 18821742.23119
4963.56; 3.3077483; 18821745.598335
4964.58; 3.2848397; 18821748.942161
4965.59; 3.2585344; 18821752.259208
4966.61; 3.2280093; 18821755.545182
4967.63; 3.1932322; 18821758.795755
4968.65; 3.155305; 18821762.007719
4969.67; 3.1165027; 18821765.180184
4970.68; 3.0799849; 18821768.315476
4971.70; 3.0492404; 18821771.419471
4972.72; 3.0273877; 18821774.501221
4973.74; 3.0164831; 18821777.571871
4974.76; 3.0169865; 18821780.643033
4975.77; 3.0275008; 18821783.724898
4976.79; 3.0448543; 18821786.824428
4977.81; 3.0645408; 18821789.943999
4978.83; 3.0814641; 18821793.080796
4979.84; 3.0908739; 18821796.227172
4980.86; 3.0893219; 18821799.371969
4981.88; 3.0754305; 18821802.502624
4982.90; 3.0502762; 18821805.607674
4983.92; 3.0172458; 18821808.6791
4984.93; 2.9813415; 18821811.713977
4985.95; 2.9480538; 18821814.714968
4986.97; 2.9220628; 18821817.689502
4987.99; 2.906108; 18821820.647795
4989.01; 2.9003524; 18821823.600228
4990.02; 2.9024468; 18821826.554794
4991.04; 2.9082998; 18821829.515317
4992.06; 2.9133382; 18821832.48097
4993.08; 2.9138809; 18821835.447175
4994.10; 2.9082004; 18821838.407598
4995.11; 2.8969411; 18821841.356559
4996.13; 2.88277; 18821844.291094
4997.15; 2.8693888; 18821847.212008
4998.17; 2.8602468; 18821850.123616
