#Wavenumber (cm^-1); Spectrum (K*cm*km*mol^-1); Integral (K*km*mol^-1)
0.00; 27.656032; 28.152647371615
1.02; 28.711847; 57.380069020837
2.04; 31.749009; 89.699190467626
3.05; 36.40749; 126.76044467688
4.07; 42.180808; 169.69868691922
5.09; 48.527496; 219.09758393008
6.11; 54.979856; 275.06470435439
7.13; 61.222787; 337.38685982956
8.14; 67.127496; 405.71975396413
9.16; 72.740051; 479.76598650703
10.18; 78.237495; 559.4083801876
11.20; 83.870266; 644.78469209947
12.22; 89.908086; 736.30724379359
13.23; 96.599375; 834.64123909817
14.25; 104.14565; 940.65701193938
15.27; 112.68615; 1055.3666477081
16.29; 122.28652; 1179.8490515797
17.31; 132.92796; 1315.1639812288
18.32; 144.49815; 1462.256862017
19.34; 156.78909; 1621.8613905872
20.36; 169.50765; 1794.4128598218
21.38; 182.30182; 1979.9882446
22.40; 194.80091; 2178.2871664089
23.41; 206.66281; 2388.6609883405
24.43; 217.61889; 2610.187631496
25.45; 227.5074; 2841.7803469561
26.47; 236.28895; 3082.3122990069
27.48; 244.0422; 3330.7367277021
28.50; 250.94162; 3586.1844654523
29.52; 257.22216; 3848.0255288462
30.54; 263.13744; 4115.8880889951
31.56; 268.91842; 4389.6354411692
32.57; 274.74025; 4669.3091641042
33.59; 280.70424; 4955.0539652436
34.61; 286.84094; 5247.0456685666
35.63; 293.13711; 5545.4465992112
36.65; 299.58396; 5850.4101470021
37.66; 306.2379; 6162.1471165015
38.68; 313.27829; 6481.0508997958
39.70; 321.04338; 6807.8592088562
40.72; 330.02645; 7143.8118929367
41.74; 340.82111; 7490.7530752397
42.75; 354.01648; 7851.1265740678
43.77; 370.05726; 8227.8288924054
44.79; 389.09688; 8623.9127292517
45.81; 410.87983; 9042.1706648475
46.83; 434.68856; 9484.6648603228
47.84; 459.38052; 9952.2944069061
48.86; 483.5217; 10444.498635334
49.88; 505.59965; 10959.177265203
50.90; 524.27591; 11492.867513855
51.92; 538.62211; 12041.161580512
52.93; 548.28144; 12599.288430088
53.95; 553.51002; 13162.737744678
54.97; 555.08107; 13727.786323342
55.99; 554.07137; 14291.807072879
57.01; 551.58515; 14853.296949525
58.02; 548.49388; 15411.64004827
59.04; 545.27177; 15966.703183745
60.06; 541.98223; 16518.417710252
61.08; 538.42537; 17066.511502275
62.10; 534.40259; 17610.510281769
63.11; 530.00945; 18150.037028878
64.13; 525.84887; 18685.328486155
65.15; 523.0741; 19217.795345966
66.17; 523.22163; 19750.412383285
67.19; 527.86541; 20287.756589888
68.20; 538.19061; 20835.611404476
69.22; 554.62367; 21400.194362595
70.24; 576.64863; 21987.197783068
71.26; 602.88601; 22600.909728012
72.27; 631.42557; 23243.673709428
73.29; 660.31702; 23915.847937319
74.31; 688.06467; 24616.268084579
75.33; 713.96597; 25343.054634243
76.35; 738.18451; 26094.49461144
77.36; 761.5393; 26869.708757188
78.38; 785.09029; 27668.896797473
79.40; 809.67017; 28493.106088327
80.42; 835.52689; 29343.636406364
81.44; 862.19544; 30221.314158807
82.45; 888.62816; 31125.899284108
83.47; 913.51642; 32055.819584791
84.49; 935.66955; 33008.290809313
85.51; 954.30608; 33979.733216701
86.53; 969.15982; 34966.296090524
87.54; 980.38756; 35964.288317412
88.56; 988.35; 36970.385967252
89.58; 993.38609; 37981.610135458
90.60; 995.69323; 38995.182873682
91.62; 995.36686; 40008.423387563
92.63; 992.56977; 41018.816581879
93.65; 987.73334; 42024.286503599
94.67; 981.6718; 43023.586034876
95.69; 975.5269; 44016.630321552
96.71; 970.53984; 45004.597993113
97.72; 967.73245; 45989.707868967
98.74; 967.63179; 46974.71527299
99.76; 970.16399; 47962.300351576
100.78; 974.77611; 48954.580370529
101.80; 980.74521; 49952.936671599
102.81; 987.54718; 50958.217084401
103.83; 995.12298; 51971.209338801
104.85; 1003.9158; 52993.152306645
105.87; 1014.6466; 54026.018738305
106.89; 1027.9081; 55072.384814711
107.90; 1043.7408; 56134.867924133
108.92; 1061.3698; 57215.296575308
109.94; 1079.2227; 58313.89870007
110.96; 1095.2393; 59428.805085434
111.98; 1107.3694; 60556.059318401
112.99; 1114.0851; 61690.149898776
114.01; 1114.7415; 62824.90862996
115.03; 1109.6871; 63954.522168046
116.05; 1100.1378; 65074.414960512
117.07; 1087.9147; 66181.865225465
118.08; 1075.1805; 67276.352550404
119.10; 1064.2706; 68359.734131694
120.12; 1057.6307; 69436.356577323
121.14; 1057.778; 70513.128922416
122.15; 1067.1661; 71599.457922908
123.17; 1087.8629; 72706.855432604
124.19; 1121.0518; 73848.037830124
125.21; 1166.4884; 75035.472713904
126.23; 1222.1321; 76279.550413742
127.24; 1284.1684; 77586.778437301
128.26; 1347.5361; 78958.512055275
129.28; 1406.896; 80390.671508538
130.30; 1457.8021; 81874.651164582
131.32; 1497.7251; 83399.270662277
132.33; 1526.5947; 84953.278145854
133.35; 1546.6699; 86527.721323607
134.37; 1561.7689; 88117.534683497
135.39; 1576.1107; 89721.947314632
136.41; 1593.1496; 91343.704846774
137.42; 1614.7759; 92987.477053872
138.44; 1641.103; 94658.049130336
139.46; 1670.8371; 96358.889247173
140.48; 1702.0088; 98091.460710114
141.50; 1732.7299; 99855.305014065
142.51; 1761.6707; 101648.60973447
143.53; 1788.1059; 103468.82441668
144.55; 1811.6036; 105312.95869004
145.57; 1831.6032; 107177.45170015
146.59; 1847.1974; 109057.81892486
147.60; 1857.3362; 110948.50702612
148.62; 1861.4659; 112843.39895165
149.64; 1860.3727; 114737.17811222
150.66; 1856.8375; 116627.35859412
151.68; 1855.6967; 118516.37780462
152.69; 1863.0777; 120412.91048501
153.71; 1884.8717; 122331.62851821
154.73; 1924.8278; 124291.02013852
155.75; 1982.8636; 126309.48975591
156.77; 2054.2092; 128400.58602965
157.78; 2129.7962; 130568.626678
158.80; 2197.9417; 132806.03651717
159.82; 2246.959; 135093.34378185
160.84; 2268.014; 137402.08412194
161.86; 2257.429; 139700.04945095
162.87; 2217.7672; 141957.64077828
163.89; 2157.3697; 144153.75006818
164.91; 2088.4541; 146279.70619669
165.93; 2024.2792; 148340.33509813
166.94; 1976.1237; 150351.94375575
167.96; 1950.8421; 152337.81684895
168.98; 1949.5729; 154322.39788768
170.00; 1967.8374; 156325.57141413
171.02; 1996.9058; 158358.33533883
172.03; 2026.0076; 160420.72365603
173.05; 2044.8089; 162502.2508702
174.07; 2045.579; 164584.56207163
175.09; 2024.6048; 166645.52243896
176.11; 1982.6239; 168663.74797781
177.12; 1924.2828; 170622.58479966
178.14; 1856.8277; 172512.75525525
179.16; 1788.3722; 174333.24098828
180.18; 1726.1482; 176090.38535036
181.20; 1675.1224; 177795.58765266
182.21; 1637.2647; 179462.25248133
183.23; 1611.5956; 181102.78728854
184.25; 1594.9497; 182726.3772983
185.27; 1583.2102; 184338.01693182
186.29; 1572.6432; 185938.89987229
187.30; 1560.9385; 187527.8679133
188.32; 1547.655; 189103.31391466
189.34; 1533.9704; 190664.82963074
190.36; 1521.8711; 192214.02875138
191.38; 1513.1194; 193754.31901999
192.39; 1508.4198; 195289.82524297
193.41; 1507.1277; 196824.01618612
194.43; 1507.6312; 198358.71969671
195.45; 1508.2533; 199894.05647527
196.47; 1508.2892; 201429.42981234
197.48; 1508.7033; 202965.22465271
198.50; 1512.1149; 204504.49239653
199.52; 1521.9748; 206053.79710998
200.54; 1541.1706; 207622.64231763
201.56; 1570.5713; 209221.41613824
202.57; 1608.1057; 210858.39834646
203.59; 1648.8222; 212536.82817545
204.61; 1686.0379; 214253.14200721
205.63; 1713.2784; 215997.18553243
206.65; 1726.3881; 217754.5741407
207.66; 1725.0862; 219510.63746921
208.68; 1713.4032; 221254.80800073
209.70; 1698.8019; 222984.11504818
210.72; 1690.237; 224704.70338238
211.74; 1695.7674; 226430.92142192
212.75; 1720.4789; 228182.29470911
213.77; 1765.35; 229979.34484655
214.79; 1827.3554; 231839.51383304
215.81; 1900.6786; 233774.32267492
216.82; 1978.5522; 235788.40340725
217.84; 2055.0846; 237880.39086839
218.86; 2126.5082; 240045.08442718
219.88; 2191.5453; 242275.98302259
220.90; 2250.935; 244567.33773046
221.91; 2306.4452; 246915.1993733
222.93; 2359.8332; 249317.40777575
223.95; 2412.1609; 251772.88347562
224.97; 2463.6683; 254280.79144946
225.99; 2514.1539; 256840.09158309
227.00; 2563.5941; 259449.71975035
228.02; 2612.6481; 262109.28272904
229.04; 2662.7542; 264819.85163448
230.06; 2715.7049; 267584.32200501
231.08; 2772.808; 270406.92092705
232.09; 2833.9344; 273291.74387194
233.11; 2896.8275; 276240.58927725
234.13; 2957.0029; 279250.69065108
235.15; 3008.3913; 282313.10317089
236.17; 3044.6422; 285412.41755256
237.18; 3060.777; 288528.15649244
238.20; 3054.7302; 291637.74002399
239.22; 3028.3001; 294720.41889129
240.24; 2987.1581; 297761.21695473
241.26; 2939.807; 300753.81364528
242.27; 2895.6781; 303701.48902032
243.29; 2862.8183; 306615.71448234
244.31; 2845.771; 309512.58656005
245.33; 2844.2403; 312407.90042195
246.35; 2852.939; 315312.06918654
247.36; 2862.7128; 318226.18730184
248.38; 2862.6814; 321140.27341841
249.40; 2842.8552; 324034.17738122
250.42; 2796.5567; 326880.95145439
251.44; 2722.0317; 329651.86221903
252.45; 2622.8702; 332321.83090731
253.47; 2507.1841; 334874.03611585
254.49; 2385.8131; 337302.69090432
255.51; 2270.0625; 339613.51659939
256.53; 2169.5445; 341822.01928292
257.54; 2090.6076; 343950.16762005
258.56; 2035.6319; 346022.35308876
259.58; 2003.2171; 348061.54164036
260.60; 1989.0731; 350086.33220667
261.61; 1987.2918; 352109.30947239
262.63; 1991.649; 354136.72225084
263.65; 1996.651; 356169.22677926
264.67; 1998.1562; 358203.26355789
265.69; 1993.543; 360232.60432835
266.70; 1981.5104; 362249.69638665
267.72; 1961.6842; 364246.60623482
268.74; 1934.2335; 366215.57243238
269.76; 1899.6769; 368149.36156419
270.78; 1858.9832; 370041.72623092
271.79; 1813.9483; 371888.2473468
272.81; 1767.7006; 373687.69028602
273.83; 1725.0763; 375443.74351858
274.85; 1692.5775; 377166.71434914
275.87; 1677.6974; 378874.53795289
276.88; 1687.5811; 380592.42270026
277.90; 1727.2349; 382350.67328394
278.92; 1797.7336; 384180.68846682
279.94; 1894.9954; 386109.71205241
280.96; 2009.6419; 388155.44081198
281.97; 2128.206; 390321.86269907
282.99; 2235.5657; 392597.57208734
284.01; 2318.0693; 394957.26655944
285.03; 2366.5363; 397366.2984119
286.05; 2378.2726; 399787.27724979
287.06; 2357.4723; 402187.08228282
288.08; 2313.8387; 404542.47022025
289.10; 2259.7904; 406842.83930841
290.12; 2207.0617; 409089.53286436
291.14; 2163.6965; 411292.08257344
292.15; 2132.3057; 413462.67774815
293.17; 2110.0496; 415610.61714926
294.19; 2090.2579; 417738.40949995
295.21; 2065.0888; 419840.58074983
296.23; 2028.3315; 421905.3347081
297.24; 1977.4629; 423918.30660118
298.26; 1914.3572; 425867.03965547
299.28; 1844.5214; 427744.68283264
300.30; 1775.2051; 429551.76499702
301.32; 1713.0705; 431295.59682659
302.33; 1662.1916; 432987.63617301
303.35; 1622.9861; 434639.76602175
304.37; 1592.3363; 436260.6956484
305.39; 1564.7612; 437853.55499546
306.41; 1534.19; 439415.29421426
307.42; 1495.7487; 440937.9018466
308.44; 1447.032; 442410.91798913
309.46; 1388.5494; 443824.40136873
310.48; 1323.3175; 445171.48145195
311.49; 1255.8273; 446449.85947124
312.51; 1190.7684; 447662.01028422
313.53; 1131.9064; 448814.24220097
314.55; 1081.4096; 449915.07052998
315.57; 1039.7376; 450973.47854689
316.58; 1006.0239; 451997.5674787
317.60; 978.74112; 452993.88370114
318.62; 956.38396; 453967.44130496
319.64; 937.93896; 454922.22269738
320.66; 923.01234; 455861.80942951
321.67; 911.62195; 456789.80123423
322.69; 903.77914; 457709.80939689
323.71; 899.05535; 458625.00894984
324.73; 896.32593; 459537.43006617
325.75; 893.81236; 460447.29247922
326.76; 889.42951; 461352.69333954
327.78; 881.32579; 462249.8449608
328.80; 868.42472; 463133.86384732
329.82; 850.7655; 463999.9064149
330.84; 829.50502; 464844.3067315
331.85; 806.56274; 465665.35279431
332.87; 784.02108; 466463.45242318
333.89; 763.48763; 467240.64988685
334.91; 745.64491; 467999.68423096
335.93; 730.14879; 468742.94418763
336.94; 715.90996; 469471.70963308
337.96; 701.65193; 470185.96101946
338.98; 686.53709; 470884.8261494
340.00; 670.62952; 471567.49805706
341.02; 655.02682; 472234.28709779
342.03; 641.61815; 472887.42668946
343.05; 632.56156; 473531.34706367
344.07; 629.66894; 474172.32287582
345.09; 633.90617; 474817.61200151
346.11; 645.15868; 475474.3556954
347.12; 662.30702; 476148.55565981
348.14; 683.54963; 476844.37968308
349.16; 706.84314; 477563.91550282
350.18; 730.32411; 478307.35393119
351.20; 752.6207; 479073.48933012
352.21; 773.0285; 479860.39898868
353.23; 791.57411; 480666.18727164
354.25; 809.00341; 481489.71782888
355.27; 826.70959; 482331.27252218
356.28; 846.58382; 483193.05832217
357.30; 870.75942; 484079.45383548
358.32; 901.24745; 484996.88485373
359.34; 939.52064; 485953.27632278
360.36; 986.16319; 486957.14789101
361.37; 1040.7258; 488016.5618785
362.39; 1101.8798; 489138.22792671
363.41; 1167.8542; 490327.05315243
364.43; 1237.01; 491586.27593902
365.45; 1308.3049; 492918.07389791
366.46; 1381.4081; 494324.28768972
367.48; 1456.3314; 495806.77017987
368.50; 1532.651; 497366.9427225
369.52; 1608.6003; 499004.42842872
370.54; 1680.448; 500715.05193595
371.55; 1742.5461; 502488.88866651
372.57; 1788.2399; 504309.2397664
373.59; 1811.5145; 506153.28340602
374.61; 1808.9369; 507994.70311238
375.63; 1781.2538; 509807.94263731
376.64; 1734.0223; 511573.10247237
377.66; 1676.8981; 513280.11239044
378.68; 1621.6224; 514930.85397993
379.70; 1579.184; 516538.39510955
380.72; 1556.9513; 518123.30434703
381.73; 1556.6309; 519707.88747224
382.75; 1573.6986; 521309.84471788
383.77; 1598.5156; 522937.06462114
384.79; 1618.8355; 524584.96925907
385.81; 1622.9852; 526237.09810836
386.82; 1602.8156; 527868.69523458
387.84; 1555.609; 529452.23808109
388.86; 1484.4732; 530963.36774661
389.88; 1397.2231; 532385.68052397
390.90; 1304.1894; 533713.28907644
391.91; 1215.669; 534950.78766308
392.93; 1139.7573; 536111.01141773
393.95; 1081.1031; 537211.52769718
394.97; 1040.7729; 538270.98955308
395.99; 1017.0476; 539306.3001172
397.00; 1006.7126; 540331.09014769
398.02; 1006.3236; 541355.48410789
399.04; 1013.0385; 542386.71361567
400.06; 1024.8435; 543429.96011165
401.07; 1040.2593; 544488.89922598
402.09; 1057.8105; 545565.70463484
403.11; 1075.5932; 546660.61213052
404.13; 1091.1949; 547771.4014916
405.15; 1102.0388; 548893.22938639
406.16; 1106.0362; 550019.12655216
407.18; 1102.3011; 551141.22150015
408.20; 1091.6578; 552252.48199786
409.22; 1076.7658; 553348.58310027
410.24; 1061.8282; 554429.47833918
411.25; 1051.9935; 555500.36228898
412.27; 1052.6379; 556571.90226424
413.29; 1068.701; 557659.79372764
414.31; 1104.1654; 558783.78647107
415.33; 1161.6708; 559966.31723197
416.34; 1242.1858; 561230.80875494
417.36; 1344.677; 562599.6319178
418.38; 1465.7952; 564091.74822712
419.40; 1599.7067; 565720.18058051
420.42; 1738.2655; 567489.65984252
421.43; 1871.6979; 569394.96756527
422.45; 1989.8325; 571420.53116781
423.47; 2083.7086; 573541.65660468
424.49; 2147.2021; 575727.41571745
425.51; 2178.2125; 577944.74208721
426.52; 2179.0202; 580162.89062129
427.54; 2155.6417; 582357.24089449
428.56; 2116.3191; 584511.5624649
429.58; 2069.5643; 586618.28966529
430.60; 2022.3343; 588676.93874714
431.61; 1978.8674; 590691.3403292
432.63; 1940.4778; 592666.66303755
433.65; 1906.2695; 594607.16316099
434.67; 1874.4103; 596515.2319231
435.69; 1843.436; 598391.77024914
436.70; 1813.083; 600237.41050889
437.72; 1784.3671; 602053.81922174
438.74; 1758.9512; 603844.35560552
439.76; 1738.1319; 605613.69890662
440.78; 1721.9274; 607366.54664899
441.79; 1708.6942; 609105.92363474
442.81; 1695.4807; 610831.84986971
443.83; 1679.0116; 612541.01120015
444.85; 1656.9365; 614227.7010322
445.87; 1628.8525; 615885.80259942
446.88; 1596.6787; 617511.15261632
447.90; 1564.1932; 619103.43375873
448.92; 1535.8477; 620666.86040697
449.94; 1515.2408; 622209.31017247
450.95; 1503.7645; 623740.07756646
451.97; 1499.8951; 625266.90600866
452.99; 1499.3992; 626793.22967616
454.01; 1496.4375; 628316.53849098
455.03; 1485.2658; 629828.47498082
456.04; 1462.0472; 631316.77593146
457.06; 1426.2467; 632768.63356197
458.08; 1381.1911; 634174.62651163
459.10; 1333.6057; 635532.17961232
460.12; 1292.2219; 636847.60573216
461.13; 1265.8022; 638136.13770086
462.15; 1261.0962; 639419.87916983
463.17; 1281.2648; 640724.15144892
464.19; 1325.1929; 642073.140668
465.21; 1387.8742; 643485.93671789
466.22; 1461.7601; 644973.94537444
467.24; 1538.6972; 646540.27276004
468.26; 1611.9143; 648181.13195297
469.28; 1677.5096; 649888.76429462
470.30; 1735.0498; 651654.97014649
471.31; 1787.1659; 653474.22786336
472.33; 1838.3413; 655345.57996378
473.35; 1893.3341; 657272.9123978
474.37; 1955.7613; 659263.79295804
475.39; 2027.2858; 661327.48238776
476.40; 2107.6062; 663472.93454462
477.42; 2195.1457; 665707.49809212
478.44; 2288.0886; 668036.67358004
479.46; 2385.3068; 670464.81301208
480.48; 2486.7908; 672996.25875307
481.49; 2593.427; 675636.25553279
482.51; 2706.2398; 678391.09086303
483.53; 2825.441; 681267.26782856
484.55; 2949.7065; 684269.94178262
485.57; 3076.0042; 687401.18136645
486.58; 3200.0657; 690658.71014992
487.60; 3317.3323; 694035.61133094
488.62; 3424.013; 697521.10882426
489.64; 3517.8487; 701102.12702188
490.66; 3598.305; 704765.04621628
491.67; 3666.1453; 708497.0239272
492.69; 3722.5869; 712286.45674467
493.71; 3768.397; 716122.52227403
494.73; 3803.2952; 719994.11262077
495.74; 3825.8844; 723888.69787248
496.76; 3834.107; 727791.65335307
497.78; 3826.004; 731686.360362
498.80; 3800.4459; 735555.05031571
499.82; 3757.532; 739380.05575679
500.83; 3698.5195; 743144.9890418
501.85; 3625.3583; 746835.44735565
502.87; 3540.0845; 750439.10065676
503.89; 3444.3867; 753945.33771913
504.91; 3339.5715; 757344.87736358
505.92; 3226.9623; 760629.7857104
506.94; 3108.5437; 763794.14907307
507.96; 2987.5129; 766835.30825311
508.98; 2868.3924; 769755.20796652
510.00; 2756.5076; 772561.21373458
511.01; 2656.882; 775265.80498681
512.03; 2572.8697; 777884.87531782
513.05; 2505.0008; 780434.85799214
514.07; 2450.5094; 782929.37082113
515.09; 2403.8172; 785376.35299058
516.10; 2357.9285; 787776.62245734
517.12; 2306.3668; 790124.40435061
518.14; 2245.0614; 792409.78002334
519.16; 2173.5716; 794622.38216396
520.18; 2095.2248; 796755.23055078
521.19; 2016.0886; 798807.52177629
522.21; 1943.0789; 800785.49228883
523.23; 1881.788; 802701.07122697
524.25; 1834.7138; 804568.73070722
525.27; 1800.437; 806401.4978389
526.28; 1773.9816; 808207.3345964
527.30; 1748.2213; 809986.94842576
528.32; 1715.8684; 811733.62845642
529.34; 1671.4324; 813435.07456178
530.36; 1612.5764; 815076.6077026
531.37; 1540.5279; 816644.79864341
532.39; 1459.5124; 818130.51928021
533.41; 1375.4685; 819530.68684459
534.43; 1294.4911; 820848.42292915
535.45; 1221.4703; 822091.82699641
536.46; 1159.2754; 823271.91929109
537.48; 1108.6233; 824400.44997009
538.50; 1068.5496; 825488.18739725
539.52; 1037.2343; 826544.04714395
540.54; 1012.8689; 827575.10401639
541.55; 994.28852; 828587.24682244
542.57; 981.20145; 829586.06755316
543.59; 973.99983; 830577.5573466
544.61; 973.26527; 831568.29939726
545.62; 979.17395; 832565.05622799
546.64; 991.02595; 833573.87788005
547.66; 1007.0772; 834599.03900547
548.68; 1024.7516; 835642.19190349
549.70; 1041.1853; 836702.07363037
550.71; 1053.9416; 837774.94064959
551.73; 1061.6692; 838855.67406102
552.75; 1064.4893; 839939.27821985
553.77; 1063.9804; 841022.3643724
554.79; 1062.7734; 842104.22179467
555.80; 1063.9088; 843187.23508642
556.82; 1070.2012; 844276.65372072
557.84; 1083.8467; 845379.96287988
558.86; 1106.4109; 846506.241428
559.88; 1139.1624; 847665.85962502
560.89; 1183.559; 848870.67159045
561.91; 1241.6081; 850134.57509385
562.93; 1315.8642; 851474.06803742
563.95; 1408.974; 852908.34272431
564.97; 1522.8899; 854458.57896948
565.98; 1658.0343; 856146.38635857
567.00; 1812.7467; 857991.68431529
568.02; 1983.2478; 860010.5449708
569.04; 2164.1389; 862213.54501032
570.06; 2349.2299; 864604.9596732
571.07; 2532.3428; 867182.77531935
572.09; 2707.7623; 869939.16044669
573.11; 2870.1829; 872860.88275482
574.13; 3014.2677; 875929.27720555
575.15; 3134.1608; 879119.71760455
576.16; 3223.3689; 882400.96809262
577.18; 3275.3058; 885735.08810657
578.20; 3284.5078; 889078.57526538
579.22; 3248.2131; 892385.11604441
580.24; 3167.78; 895609.77943167
581.25; 3049.4049; 898713.94200075
582.27; 2903.8086; 901669.89386403
583.29; 2744.8944; 904464.07795371
584.31; 2587.7053; 907098.25031573
585.33; 2446.1965; 909588.37279878
586.34; 2331.3213; 911961.55731913
587.36; 2249.7532; 914251.70903351
588.38; 2203.3444; 916494.61859861
589.40; 2189.2849; 918723.2161097
590.41; 2200.9365; 920963.67451414
591.43; 2229.4441; 923233.15238042
592.45; 2266.325; 925540.17340969
593.47; 2307.1646; 927888.76744628
594.49; 2356.1857; 930287.26283883
595.50; 2430.8758; 932761.78953847
596.52; 2565.2506; 935373.10397765
597.54; 2810.0054; 938233.5682198
598.56; 3228.0444; 941519.5781473
599.58; 3884.7903; 945474.12706905
600.59; 4834.1275; 950395.06030536
601.61; 6102.4354; 956607.07620365
602.63; 7674.3881; 964419.27213932
603.65; 9484.5451; 974074.12980802
604.67; 11417.958; 985697.11837733
605.68; 13321.161; 999257.48504913
606.70; 15022.425; 1014549.6649609
607.72; 16357.733; 1031201.1308269
608.74; 17197.255; 1048707.1939025
609.76; 17466.72; 1066487.5612482
610.77; 17159.118; 1083954.80278
611.79; 16334.354; 1100582.470247
612.81; 15107.268; 1115961.0176454
613.83; 13627.004; 1129832.719266
614.85; 12052.462; 1142101.6057962
615.86; 10529.09; 1152819.7654466
616.88; 9171.4128; 1162155.8678794
617.90; 8053.9673; 1170354.4590531
618.92; 7211.0471; 1177694.9938542
619.94; 6643.598; 1184457.889885
620.95; 6330.2215; 1190901.7821783
621.97; 6238.7856; 1197252.5966613
622.99; 6335.6355; 1203702.0001794
624.01; 6590.5913; 1210410.9376885
625.03; 6977.4105; 1217513.6404998
626.04; 7470.7643; 1225118.5561965
627.06; 8041.6737; 1233304.6329793
628.08; 8653.5988; 1242113.6231049
629.10; 9260.9707; 1251540.8916086
630.12; 9811.0763; 1261528.143958
631.13; 10249.135; 1271961.321316
632.15; 10525.442; 1282675.7673277
633.17; 10602.852; 1293469.0130197
634.19; 10462.77; 1304119.6612747
635.21; 10108.206; 1314409.3784989
636.22; 9563.1786; 1324144.2816592
637.24; 8868.6517; 1333172.1863493
638.26; 8075.9529; 1341393.157881
639.28; 7239.1388; 1348762.288754
640.29; 6407.8617; 1355285.2154516
641.31; 5622.0282; 1361008.1976031
642.33; 4908.9865; 1366005.3340264
643.35; 4283.325; 1370365.5740131
644.37; 3748.7797; 1374181.6700026
645.38; 3301.3707; 1377542.3229391
646.40; 2932.7902; 1380527.7768276
647.42; 2633.2312; 1383208.2925774
648.44; 2393.1893; 1385644.4560371
649.46; 2204.1728; 1387888.2087979
650.47; 2058.5902; 1389983.7647704
651.49; 1949.2655; 1391968.0328958
652.51; 1869.0236; 1393870.6182779
653.53; 1810.6332; 1395713.7646989
654.55; 1767.1577; 1397512.654968
655.56; 1732.5565; 1399276.3227272
656.58; 1702.2605; 1401009.1504618
657.60; 1673.4677; 1402712.668384
658.62; 1645.034; 1404387.2420076
659.64; 1617.0135; 1406033.2920132
660.65; 1590.0514; 1407651.8956916
661.67; 1564.8809; 1409244.8769456
662.69; 1542.114; 1410814.6824354
663.71; 1522.3583; 1412364.3775028
664.73; 1506.5303; 1413897.9603345
665.74; 1496.1229; 1415420.9488925
666.76; 1493.1953; 1416940.9573076
667.78; 1499.971; 1418467.8630922
668.80; 1518.1151; 1420013.2387987
669.82; 1547.9296; 1421588.9643327
670.83; 1587.7786; 1423205.2543859
671.85; 1634.0015; 1424868.5974139
672.87; 1681.4061; 1426580.1962634
673.89; 1724.2253; 1428335.3832653
674.91; 1757.2613; 1430124.1994472
675.92; 1776.8841; 1431932.9907412
676.94; 1781.6294; 1433746.6126097
677.96; 1772.2997; 1435550.7371825
678.98; 1751.6445; 1437333.8357245
680.00; 1723.8095; 1439088.5994254
681.01; 1693.7447; 1440812.7584272
682.03; 1666.6854; 1442509.3722082
683.05; 1647.7027; 1444186.6624916
684.07; 1641.249; 1445857.3831947
685.08; 1650.6339; 1447537.6572362
686.10; 1677.4597; 1449245.2388471
687.12; 1721.1634; 1450997.3089391
688.14; 1778.8778; 1452808.1297732
689.16; 1845.792; 1454687.0663853
690.17; 1916.0429; 1456637.5153385
691.19; 1983.9721; 1458657.1133448
692.21; 2045.4272; 1460739.2699276
693.23; 2098.7472; 1462875.7039898
694.25; 2145.1916; 1465059.4164671
695.26; 2188.785; 1467287.505184
696.28; 2235.7706; 1469563.423184
697.30; 2293.9692; 1471898.5848501
698.32; 2372.2774; 1474313.4608659
699.34; 2480.3294; 1476838.3291179
700.35; 2628.1132; 1479513.6349218
701.37; 2825.2138; 1482389.5806493
702.39; 3079.4602; 1485524.3382252
703.41; 3395.0783; 1488980.3814692
704.43; 3770.8668; 1492818.9611743
705.44; 4199.2059; 1497093.5716153
706.46; 4666.6862; 1501844.0567686
707.48; 5156.7108; 1507093.3657912
708.50; 5653.6882; 1512848.5764323
709.52; 6147.6511; 1519106.6199477
710.53; 6637.6584; 1525863.4697721
711.55; 7132.4426; 1533123.9885169
712.57; 7647.5151; 1540908.8289144
713.59; 8199.1623; 1549255.2222864
714.61; 8797.0177; 1558210.2066612
715.62; 9437.708; 1567817.3861352
716.64; 10102.044; 1578100.8305723
717.66; 10757.286; 1589051.2835685
718.68; 11364.419; 1600619.7713999
719.70; 11888.611; 1612721.8639073
720.71; 12309.821; 1625252.7299914
721.73; 12630.211; 1638109.7395643
722.75; 12875.869; 1651216.8187403
723.77; 13092.024; 1664543.9340163
724.79; 13332.907; 1678116.2578605
725.80; 13649.017; 1692010.3682968
726.82; 14075.228; 1706338.3430248
727.84; 14622.791; 1721223.7133855
728.86; 15276.992; 1736775.0323554
729.88; 16000.518; 1753062.8693333
730.89; 16741.069; 1770104.5556723
731.91; 17440.885; 1787858.6236071
732.93; 18045.782; 1806228.4506155
733.95; 18511.986; 1825072.8537511
734.96; 18810.005; 1844220.6272084
735.98; 18925.741; 1863486.214924
737.00; 18859.608; 1882684.4819881
738.02; 18624.5; 1901643.4197852
739.04; 18243.221; 1920214.2313571
740.05; 17745.592; 1938278.4781934
741.07; 17165.238; 1955751.9500219
742.09; 16536.013; 1972584.8977883
743.11; 15888.274; 1988758.4753736
744.13; 15245.511; 2004277.7477898
745.14; 14622.019; 2019162.3319647
746.16; 14022.262; 2033436.3891017
747.18; 13442.235; 2047120.0042438
748.20; 12872.625; 2060223.7812946
749.22; 12303.033; 2072747.7382281
750.23; 11726.182; 2084684.4857933
751.25; 11140.986; 2096025.5286246
752.27; 10553.653; 2106768.6915648
753.29; 9976.5808; 2116924.4202872
754.31; 9425.4658; 2126519.1377164
755.32; 8915.61; 2135594.8439846
756.34; 8458.6821; 2144205.4173473
757.36; 8061.0146; 2152411.1823731
758.38; 7723.9758; 2160273.8564075
759.40; 7446.1664; 2167853.7325325
760.41; 7226.4589; 2175209.955881
761.43; 7066.505; 2182403.3530548
762.45; 6971.5003; 2189500.0394766
763.47; 6948.6986; 2196573.5147688
764.49; 7004.1872; 2203703.4750882
765.50; 7139.3365; 2210971.0115262
766.52; 7348.6964; 2218451.6673392
767.54; 7620.6645; 2226209.1749809
768.56; 7941.0776; 2234292.8492642
769.58; 8298.4243; 2242740.2870958
770.59; 8688.2961; 2251584.597578
771.61; 9114.5795; 2260862.8462231
772.63; 9585.992; 2270620.9724389
773.65; 10108.564; 2280911.0542261
774.67; 10676.796; 2291779.5716955
775.68; 11267.486; 2303249.3864241
776.70; 11839.881; 2315301.8747571
777.72; 12343.747; 2327867.2761768
778.74; 12733.82; 2340829.7549967
779.75; 12986.15; 2354049.0955625
780.77; 13110.366; 2367394.8819758
781.79; 13152.757; 2380783.8213078
782.81; 13188.175; 2394208.8147699
783.83; 13302.916; 2407750.6091594
784.84; 13574.427; 2421568.7896294
785.86; 14055.124; 2435876.2992153
786.88; 14766.143; 2450907.5953753
787.90; 15702.875; 2466892.4443393
788.92; 16849.269; 2484044.2729957
789.93; 18194.128; 2502565.1101918
790.95; 19741.717; 2522661.3259611
791.97; 21511.419; 2544559.0219724
792.99; 23526.029; 2568507.5039879
794.01; 25793.502; 2594764.1757021
795.02; 28290.321; 2623562.5014145
796.04; 30954.538; 2655072.8854875
797.06; 33692.9; 2689370.8042177
798.08; 36400.721; 2726425.1673919
799.10; 38987.728; 2766112.9923587
800.11; 41400.313; 2808256.7241914
801.13; 43631.668; 2852671.8789988
802.15; 45715.877; 2899208.668748
803.17; 47708.164; 2947773.5206226
804.19; 49658.738; 2998323.9726943
805.20; 51589.828; 3050840.1911706
806.22; 53483.798; 3105284.3897682
807.24; 55285.542; 3161562.6856066
808.26; 56916.736; 3219501.4665272
809.28; 58295.385; 3278843.6527774
810.29; 59352.991; 3339262.4365601
811.31; 60043.859; 3400384.4936602
812.33; 60345.227; 3461813.3309605
813.35; 60251.077; 3523146.3272996
814.37; 59764.685; 3583984.1978467
815.38; 58894.491; 3643936.2483167
816.40; 57655.036; 3702626.5875404
817.42; 56071.282; 3759704.7330036
818.44; 54182.262; 3814859.9371732
819.46; 52040.059; 3867834.4717994
820.47; 49702.456; 3918429.4269829
821.49; 47221.133; 3966498.5032062
822.51; 44630.248; 4011930.1696631
823.53; 41940.948; 4054624.2449601
824.55; 39145.519; 4094472.6944595
825.56; 36230.949; 4131354.2375324
826.58; 33197.556; 4165147.9172112
827.60; 30075.705; 4195763.6870429
828.62; 26933.789; 4223181.1222409
829.63; 23873.576; 4247483.3924172
830.65; 21013.557; 4268874.2867799
831.67; 18465.283; 4287671.1476225
832.69; 16310.079; 4304274.10451
833.71; 14583.217; 4319119.1901041
834.72; 13269.755; 4332627.2282215
835.74; 12312.233; 4345160.549981
836.76; 11626.673; 4356996.0009389
837.78; 11121.365; 4368317.0703312
838.80; 10713.086; 4379222.5294822
839.81; 10337.353; 4389745.5084008
840.83; 9951.984; 4399876.1987104
841.85; 9535.4778; 4409582.9036786
842.87; 9082.7426; 4418828.7436809
843.89; 8600.4575; 4427583.6382773
844.90; 8103.2337; 4435832.3805362
845.92; 7610.5682; 4443579.6105368
846.94; 7143.9371; 4450851.8302262
847.96; 6723.4897; 4457696.0525809
848.98; 6364.4503; 4464174.788356
849.99; 6074.0316; 4470357.8904218
851.01; 5849.9353; 4476312.8720883
852.03; 5681.1752; 4482096.0633252
853.05; 5551.1493; 4487746.8938056
854.07; 5442.0135; 4493286.628739
855.08; 5338.9064; 4498721.4050946
856.10; 5232.673; 4504048.0404334
857.12; 5120.3884; 4509260.3748503
858.14; 5003.8738; 4514354.1024046
859.16; 4887.1266; 4519328.9863758
860.17; 4773.853; 4524188.5627033
861.19; 4666.0306; 4528938.3805214
862.21; 4563.8169; 4533584.149194
863.23; 4466.4658; 4538130.8186668
864.25; 4373.5217; 4542582.8750531
865.26; 4285.5623; 4546945.3925377
866.28; 4204.1101; 4551224.9952462
867.30; 4130.8164; 4555429.9880808
868.32; 4066.397; 4559569.4047674
869.34; 4009.9067; 4563651.3168017
870.35; 3958.746; 4567681.1493968
871.37; 3909.4282; 4571660.7785588
872.39; 3858.7737; 4575588.8436924
873.41; 3805.0058; 4579462.1754135
874.42; 3748.2727; 4583277.7552541
875.44; 3690.3772; 4587034.4000137
876.46; 3633.8311; 4590733.48325
877.48; 3580.6284; 4594378.4084615
878.50; 3531.2449; 4597973.0634358
879.51; 3484.28; 4601519.9101064
880.53; 3436.9145; 4605018.5407357
881.55; 3386.0546; 4608465.3982113
882.57; 3329.7749; 4611854.9654
883.59; 3268.5541; 4615182.2123966
884.60; 3205.8465; 4618445.6257702
885.62; 3147.7374; 4621649.8866143
886.64; 3101.7197; 4624807.3034485
887.66; 3074.9171; 4627937.4363778
888.68; 3072.2666; 4631064.871166
889.69; 3095.2013; 4634215.6525635
890.71; 3141.23; 4637413.2891414
891.73; 3204.5336; 4640675.3660842
892.75; 3277.3902; 4644011.6078582
893.77; 3351.9869; 4647423.7858544
894.78; 3422.0823; 4650907.3180059
895.80; 3484.0596; 4654453.9403569
896.82; 3537.1371; 4658054.5933094
897.84; 3582.7921; 4661701.7210355
898.86; 3623.6992; 4665390.4904726
899.87; 3662.6128; 4669118.8722728
900.89; 3701.5914; 4672886.9325598
901.91; 3741.8046; 4676695.9282265
902.93; 3783.938; 4680547.8138721
903.95; 3829; 4684445.5706329
904.96; 3879.2087; 4688394.4376554
905.98; 3938.6175; 4692403.7803068
907.00; 4013.231; 4696489.0763339
908.02; 4110.532; 4700673.4205627
909.04; 4238.5379; 4704988.069225
910.05; 4404.6755; 4709471.8388518
911.07; 4614.8522; 4714169.5592804
912.09; 4873.0668; 4719130.1310044
913.11; 5181.7368; 4724404.9154309
914.13; 5542.6415; 4730047.0853467
915.14; 5958.0842; 4736112.1579555
916.16; 6431.6705; 4742659.3209611
917.18; 6968.1119; 4749752.5581938
918.20; 7571.7365; 4757460.2592296
919.22; 8243.89; 4765852.1835088
920.23; 8979.9689; 4774993.4043422
921.25; 9767.2114; 4784936.0040947
922.27; 10584.367; 4795710.4328423
923.29; 11403.882; 4807319.0928739
924.30; 12196.392; 4819734.4938906
925.32; 12936.372; 4832903.1623558
926.34; 13607.193; 4846754.697445
927.36; 14203.825; 4861213.5783213
928.38; 14732.145; 4876210.2661424
929.39; 15205.018; 4891688.3187705
930.41; 15636.589; 4907605.691932
931.43; 16036.978; 4923930.6435241
932.45; 16409.504; 4940634.8107519
933.47; 16751.56; 4957687.1764336
934.48; 17058.724; 4975052.2218229
935.50; 17330.234; 4992693.6524521
936.52; 17573.197; 5010582.4085763
937.54; 17803.251; 5028705.3494697
938.56; 18040.775; 5047070.0804103
939.57; 18303.639; 5065702.3951577
940.59; 18599.094; 5084635.4698397
941.61; 18918.098; 5103893.277526
942.63; 19234.691; 5123473.3629594
943.65; 19511.267; 5143334.9911049
944.66; 19708.42; 5163397.3123879
945.68; 19796.228; 5183549.0180641
946.70; 19763.269; 5203667.1735588
947.72; 19620.468; 5223639.9628604
948.74; 19398.771; 5243387.074681
949.75; 19141.943; 5262872.7464813
950.77; 18897.385; 5282109.4690347
951.79; 18708.369; 5301153.7814681
952.81; 18610.088; 5320098.0479339
953.83; 18630.05; 5339062.6347719
954.84; 18791.303; 5358191.3706984
955.86; 19115.696; 5377650.3239656
956.88; 19624.365; 5397627.081147
957.90; 20333.967; 5418326.1816571
958.92; 21249.177; 5439956.9269489
959.93; 22354.019; 5462712.3539201
960.95; 23605.578; 5486741.8135283
961.97; 24933.394; 5512122.9332023
962.99; 26246.214; 5538840.4460878
964.01; 27445.423; 5566778.7025677
965.02; 28442.313; 5595731.7503077
966.04; 29174.938; 5625430.5783558
967.06; 29620.343; 5655582.8096634
968.08; 29799.18; 5685917.0888311
969.09; 29771.763; 5716223.4593567
970.11; 29626.796; 5746382.2596946
971.13; 29465.561; 5776376.9295719
972.15; 29385.062; 5806289.6550119
973.17; 29463.294; 5836282.0170581
974.18; 29748.85; 5866565.0622871
975.20; 30255.881; 5897364.2437409
976.22; 30964.383; 5928884.6498235
977.24; 31825.092; 5961281.2201798
978.26; 32767.975; 5994637.6042236
979.27; 33713.159; 6028956.1450464
980.29; 34583.026; 6064160.1728843
981.31; 35313.982; 6100108.2825656
982.33; 35866.207; 6136618.5336881
983.35; 36229.628; 6173498.7320552
984.36; 36424.714; 6210577.518646
985.38; 36497.497; 6247730.39567
986.40; 36509.448; 6284895.4380591
987.42; 36524.051; 6322075.3463393
988.44; 36592.92; 6359325.3599971
989.45; 36744.511; 6396729.6862192
990.47; 36977.984; 6434371.6782219
991.49; 37263.508; 6472304.3213872
992.51; 37548.746; 6510527.3242117
993.53; 37769.857; 6548975.4086953
994.54; 37864.463; 6587519.7982509
995.56; 37783.869; 6625982.1465818
996.58; 37502.329; 6664157.8996657
997.60; 37022.021; 6701844.7196331
998.62; 36373.301; 6738871.1704708
999.63; 35610.546; 6775121.1695627
1000.65; 34804.33; 6810550.4760451
1001.67; 34030.979; 6845192.5443438
1002.69; 33360.806; 6879152.4049937
1003.71; 32846.684; 6912588.9121391
1004.72; 32514.92; 6945687.697952
1005.74; 32360.447; 6978629.2362533
1006.76; 32347.902; 7011558.0049448
1007.78; 32419.039; 7044559.1875011
1008.80; 32505.288; 7077648.1683692
1009.81; 32542.692; 7110775.2242972
1010.83; 32485.336; 7143843.894203
1011.85; 32313.521; 7176737.6644977
1012.87; 32034.257; 7209347.1560779
1013.89; 31674.018; 7241589.9393677
1014.90; 31266.273; 7273417.6558947
1015.92; 30838.138; 7304809.5496466
1016.94; 30400.848; 7335756.3007808
1017.96; 29947.397; 7366241.4588147
1018.97; 29458.041; 7396228.4735921
1019.99; 28911.349; 7425658.9791342
1021.01; 28296.329; 7454463.4206148
1022.03; 27620.642; 7482580.042087
1023.05; 26911.351; 7509974.635752
1024.06; 26207.502; 7536652.7414087
1025.08; 25547.044; 7562658.5300352
1026.10; 24952.899; 7588059.5045646
1027.12; 24423.502; 7612921.5752932
1028.14; 23931.648; 7637282.9602972
1029.15; 23432.492; 7661136.2257271
1030.17; 22878.204; 7684425.2501455
1031.19; 22234.36; 7707058.8689503
1032.21; 21492.44; 7728937.245217
1033.23; 20674.184; 7749982.6718925
1034.24; 19826.375; 7770165.0665033
1035.26; 19007.951; 7789514.3402144
1036.28; 18273.892; 7808116.3733976
1037.30; 17661.354; 7826094.8693146
1038.32; 17182.53; 7843585.9436746
1039.33; 16826.29; 7860714.3803494
1040.35; 16567.508; 7877579.388493
1041.37; 16380.355; 7894253.8829671
1042.39; 16250.462; 7910796.1523387
1043.41; 16181.38; 7927268.0986274
1044.42; 16192.818; 7943751.6884113
1045.44; 16311.202; 7960355.7885225
1046.46; 16555.994; 7977209.0757058
1047.48; 16927.045; 7994440.0774745
1048.50; 17398.294; 8012150.7896803
1049.51; 17921.172; 8030393.7695864
1050.53; 18437.841; 8049162.6956931
1051.55; 18900.659; 8068402.7511475
1052.57; 19291.575; 8088040.7422314
1053.59; 19634.3; 8108027.6125215
1054.60; 19993.822; 8128380.4605179
1055.62; 20461.597; 8149209.4837571
1056.64; 21129.58; 8170718.4839283
1057.66; 22060.453; 8193175.0730103
1058.68; 23263.522; 8216856.3340766
1059.69; 24684.678; 8241984.2708402
1060.71; 26214.863; 8268669.8700379
1061.73; 27715.579; 8296883.1332523
1062.75; 29054.242; 8326459.0974793
1063.76; 30138.517; 8357138.8074102
1064.78; 30938.634; 8388633.0014484
1065.80; 31490.261; 8420688.727902
1066.82; 31876.767; 8453137.9013957
1067.84; 32196.469; 8485912.5173953
1068.85; 32525.497; 8519022.0700474
1069.87; 32888.446; 8552501.0884875
1070.89; 33246.407; 8586344.4964964
1071.91; 33506.313; 8620452.4768495
1072.93; 33548.549; 8654603.4522212
1073.94; 33264.062; 8688464.8315212
1074.96; 32589.354; 8721639.387415
1075.98; 31528.857; 8753734.4030837
1077.00; 30158.434; 8784434.3877664
1078.02; 28609.795; 8813557.9242586
1079.03; 27041.221; 8841084.7200634
1080.05; 25603.57; 8867148.049043
1081.07; 24411.04; 8891997.4339398
1082.09; 23523.882; 8915943.7302553
1083.11; 22946.111; 8939301.8811609
1084.12; 22636.798; 8962345.1651484
1085.14; 22530.05; 8985279.783636
1086.16; 22557.187; 9008242.0270437
1087.18; 22665.049; 9031314.0683813
1088.20; 22826.303; 9054550.2601275
1089.21; 23040.441; 9078004.4345394
1090.23; 23326.734; 9101750.0433032
1091.25; 23712.414; 9125888.257846
1092.27; 24220.091; 9150543.2656021
1093.29; 24858.145; 9175847.7845774
1094.30; 25616.571; 9201924.348888
1095.32; 26469.008; 9228868.6566409
1096.34; 27379.845; 9256740.1573301
1097.36; 28313.908; 9285562.4935449
1098.38; 29245.523; 9315333.1743463
1099.39; 30164.074; 9346038.8996491
1100.41; 31074.263; 9377671.1589156
1101.43; 31991.026; 9410236.6430275
1102.45; 32930.693; 9443758.667193
1103.47; 33901.261; 9478268.6878451
1104.48; 34894.904; 9513790.1946548
1105.50; 35885.18; 9550319.7596351
1106.52; 36829.951; 9587811.0607841
1107.54; 37679.331; 9626166.9942089
1108.56; 38386.539; 9665242.8346683
1109.57; 38918.819; 9704860.5125622
1110.59; 39265.704; 9744831.304844
1111.61; 39442.728; 9784982.2994451
1112.63; 39489.847; 9825181.2594307
1113.64; 39465.062; 9865354.9893371
1114.66; 39434.632; 9905497.7435051
1115.68; 39461.92; 9945668.2756063
1116.70; 39597.174; 9985976.4895686
1117.72; 39870.574; 10026563.013298
1118.73; 40290.509; 10067577.013073
1119.75; 40848.182; 10109158.699443
1120.77; 41528.244; 10151432.659923
1121.79; 42323.279; 10194515.931326
1122.81; 43248.052; 10238540.582
1123.82; 44348.276; 10283685.213066
1124.84; 45698.84; 10330204.66036
1125.86; 47388.566; 10378444.175277
1126.88; 49492.283; 10428825.183226
1127.90; 52035.554; 10481795.131752
1128.91; 54961.173; 10537743.234374
1129.93; 58108.153; 10596894.826181
1130.95; 61212.282; 10659206.287511
1131.97; 63932.469; 10724286.782167
1132.99; 65900.161; 10791370.302824
1134.00; 66782.204; 10859351.704923
1135.02; 66342.82; 10926885.832718
1136.04; 64489.64; 10992533.503182
1137.06; 61292.366; 11054926.487233
1138.08; 56969.691; 11112919.173869
1139.09; 51848.387; 11165698.594638
1140.11; 46305.481; 11212835.576484
1141.13; 40707.925; 11254274.487423
1142.15; 35363.41; 11290272.913062
1143.17; 30491.345; 11321311.786035
1144.18; 26216.369; 11347998.918236
1145.20; 22580.441; 11370984.832769
1146.22; 19565.396; 11390901.561826
1147.24; 17117.067; 11408325.997265
1148.26; 15164.233; 11423762.53208
1149.27; 13629.612; 11437636.889404
1150.29; 12434.047; 11450294.212288
1151.31; 11497.507; 11461998.178748
1152.33; 10740.84; 11472931.890601
1153.35; 10090.517; 11483203.60186
1154.36; 9486.1254; 11492860.068157
1155.38; 8888.0981; 11501907.768531
1156.40; 8282.3403; 11510338.833563
1157.42; 7679.1719; 11518155.899197
1158.43; 7106.0646; 11525389.566309
1159.45; 6596.0139; 11532104.023829
1160.47; 6175.0964; 11538390.00552
1161.49; 5853.1137; 11544348.222671
1162.51; 5620.1246; 11550069.266997
1163.52; 5449.5877; 11555616.712067
1164.54; 5306.5956; 11561018.597413
1165.56; 5158.1174; 11566269.338375
1166.58; 4981.7761; 11571340.571464
1167.60; 4770.5251; 11576196.760199
1168.61; 4532.2269; 11580810.371601
1169.63; 4284.9225; 11585172.237823
1170.65; 4049.8784; 11589294.839269
1171.67; 3844.9082; 11593208.789869
1172.69; 3679.982; 11596954.852785
1173.70; 3556.0447; 11600574.752881
1174.72; 3466.7442; 11604103.748841
1175.74; 3401.871; 11607566.706746
1176.76; 3350.9909; 11610977.870863
1177.78; 3306.0233; 11614343.259873
1178.79; 3262.1827; 11617664.021104
1179.81; 3217.4299; 11620939.225933
1180.83; 3171.101; 11624167.269913
1181.85; 3122.5366; 11627345.877399
1182.87; 3070.3311; 11630471.34197
1183.88; 3012.4158; 11633537.851235
1184.90; 2946.7788; 11636537.544847
1185.92; 2872.3815; 11639461.50526
1186.94; 2789.8196; 11642301.421203
1187.96; 2701.4615; 11645051.392436
1188.97; 2611.0626; 11647709.341466
1189.99; 2523.0638; 11650277.711496
1191.01; 2441.8617; 11652763.421335
1192.03; 2371.2687; 11655177.270587
1193.05; 2314.2309; 11657533.057748
1194.06; 2272.731; 11659846.599789
1195.08; 2247.7474; 11662134.709637
1196.10; 2239.1843; 11664414.1026
1197.12; 2245.7975; 11666700.227578
1198.14; 2265.2357; 11669006.139809
1199.15; 2294.3269; 11671341.665559
1200.17; 2329.6522; 11673713.151008
1201.19; 2368.2945; 11676123.972588
1202.21; 2408.511; 11678575.73284
1203.22; 2450.0488; 11681069.776772
1204.24; 2493.9206; 11683608.480316
1205.26; 2541.6746; 11686195.795388
1206.28; 2594.4214; 11688836.804408
1207.30; 2652.022; 11691536.448371
1208.31; 2712.8148; 11694297.976768
1209.33; 2774.0615; 11697121.851627
1210.35; 2833.0029; 11700005.726351
1211.37; 2888.1558; 11702945.744276
1212.39; 2940.3668; 11705938.910785
1213.40; 2993.2292; 11708985.888947
1214.42; 3052.7107; 11712093.416695
1215.44; 3126.1435; 11715275.695834
1216.46; 3220.9424; 11718554.476176
1217.48; 3343.4598; 11721957.974007
1218.49; 3498.2449; 11725519.03636
1219.51; 3687.7298; 11729272.986157
1220.53; 3912.1486; 11733255.384576
1221.55; 4169.4145; 11737499.6686
1222.57; 4454.7866; 11742034.449076
1223.58; 4760.3878; 11746880.31842
1224.60; 5074.8742; 11752046.321373
1225.62; 5383.6577; 11757526.652629
1226.64; 5669.9803; 11763298.447934
1227.66; 5916.8433; 11769321.539064
1228.67; 6109.4315; 11775540.676654
1229.69; 6237.4024; 11781890.08311
1230.71; 6296.3654; 11788299.511338
1231.73; 6288.0994; 11794700.52516
1232.75; 6219.4704; 11801031.6776
1233.76; 6100.4492; 11807241.67162
1234.78; 5941.9199; 11813290.289678
1235.80; 5753.9857; 11819147.598788
1236.82; 5545.2235; 11824792.397071
1237.84; 5322.9186; 11830210.898549
1238.85; 5093.8999; 11835396.268855
1239.87; 4865.3747; 11840349.010303
1240.89; 4645.2022; 11845077.625667
1241.91; 4441.3365; 11849598.71454
1242.93; 4260.5729; 11853935.793914
1243.94; 4107.0866; 11858116.630847
1244.96; 3981.4028; 11862169.52709
1245.98; 3880.3321; 11866119.53775
1247.00; 3798.0758; 11869985.81507
1248.02; 3728.2834; 11873781.046663
1249.03; 3666.4804; 11877513.365487
1250.05; 3612.1099; 11881190.337468
1251.07; 3569.4995; 11884823.933942
1252.09; 3547.3635; 11888434.996866
1253.10; 3556.8709; 11892055.737934
1254.12; 3608.7407; 11895729.280274
1255.14; 3710.1272; 11899506.029614
1256.16; 3862.1565; 11903437.538304
1257.18; 4058.8356; 11907569.257785
1258.19; 4287.7025; 11911933.953901
1259.21; 4532.1284; 11916547.46506
1260.23; 4774.7178; 11921407.921718
1261.25; 5000.9329; 11926498.655578
1262.27; 5201.9833; 11931794.050079
1263.28; 5376.2129; 11937266.802773
1264.30; 5528.644; 11942894.723835
1265.32; 5668.8791; 11948665.398106
1266.34; 5808.0407; 11954577.732953
1267.36; 5955.6998; 11960640.37839
1268.37; 6117.6873; 11966867.920054
1269.39; 6295.3403; 11973276.304857
1270.41; 6486.2093; 11979878.986008
1271.43; 6685.7487; 11986684.789635
1272.45; 6889.2257; 11993697.724116
1273.46; 7093.1056; 12000918.199563
1274.48; 7295.4962; 12008344.699863
1275.50; 7495.705; 12015975.004104
1276.52; 7693.3702; 12023806.522962
1277.54; 7887.7823; 12031835.94495
1278.55; 8077.8505; 12040058.848142
1279.57; 8262.7514; 12048469.97251
1280.59; 8442.8353; 12057064.414531
1281.61; 8620.0817; 12065839.285749
1282.63; 8797.4644; 12074794.724852
1283.64; 8977.0134; 12083932.937143
1284.66; 9156.9981; 12093254.366046
1285.68; 9329.2264; 12102751.115936
1286.70; 9477.6999; 12112399.005449
1287.72; 9579.6146; 12122150.639701
1288.73; 9609.0022; 12131932.189262
1289.75; 9542.384; 12141645.924393
1290.77; 9364.9967; 12151179.086956
1291.79; 9075.7642; 12160417.823275
1292.81; 8689.4009; 12169263.258435
1293.82; 8234.8038; 12177645.93333
1294.84; 7749.9714; 12185535.069788
1295.86; 7274.7305; 12192940.431549
1296.88; 6843.2022; 12199906.516135
1297.89; 6477.9989; 12206500.839427
1298.91; 6187.601; 12212799.550282
1299.93; 5967.4125; 12218874.118689
1300.95; 5803.9366; 12224782.275651
1301.97; 5680.6892; 12230564.972123
1302.98; 5584.084; 12236249.328701
1304.00; 5507.676; 12241855.905237
1305.02; 5453.7421; 12247407.579367
1306.04; 5432.0032; 12252937.12418
1307.06; 5456.1012; 12258491.199723
1308.07; 5539.014; 12264129.676941
1309.09; 5688.7869; 12269920.61653
1310.11; 5905.7654; 12275932.430884
1311.13; 6182.016; 12282225.456448
1312.15; 6502.9819; 12288845.211364
1313.16; 6850.8211; 12295819.051569
1314.18; 7208.4756; 12303156.968636
1315.20; 7563.4035; 12310856.186996
1316.22; 7910.0849; 12318908.3121
1317.24; 8250.8006; 12327307.271084
1318.25; 8594.6546; 12336056.258608
1319.27; 8955.2306; 12345172.29696
1320.29; 9347.5305; 12354687.679603
1321.31; 9784.9015; 12364648.287079
1322.33; 10276.543; 12375109.36471
1323.34; 10825.962; 12386129.726385
1324.36; 11430.493; 12397765.475302
1325.38; 12081.823; 12410064.250178
1326.40; 12767.267; 12423060.777436
1327.42; 13471.508; 12436774.190921
1328.43; 14178.418; 12451207.208389
1329.45; 14872.591; 12466346.864096
1330.47; 15540.231; 12482166.148925
1331.49; 16169.202; 12498625.698564
1332.51; 16748.263; 12515674.707947
1333.52; 17265.866; 12533250.614229
1334.54; 17709.149; 12551277.763995
1335.56; 18063.976; 12569666.1121
1336.58; 18316.694; 12588311.716018
1337.60; 18457.906; 12607101.067524
1338.61; 18487.833; 12625920.883361
1339.63; 18422.093; 12644673.779146
1340.65; 18296.128; 12663298.447652
1341.67; 18166.312; 12681790.96944
1342.69; 18106.171; 12700222.270505
1343.70; 18197.051; 12718746.083491
1344.72; 18513.947; 12737592.482165
1345.74; 19108.65; 12757044.263713
1346.76; 19993.615; 12777396.900978
1347.77; 21130.524; 12798906.862894
1348.79; 22427.325; 12821736.912177
1349.81; 23746.203; 12845909.52171
1350.83; 24922.837; 12871279.893949
1351.85; 25794.584; 12897537.667843
1352.86; 26232.576; 12924241.29789
1353.88; 26170.832; 12950882.075469
1354.90; 25625.11; 12976967.331297
1355.92; 24695.668; 13002106.455767
1356.94; 23551.537; 13026080.904052
1357.95; 22398.453; 13048881.562669
1358.97; 21437.282; 13070703.790825
1359.99; 20822.999; 13091900.705627
1361.01; 20634.954; 13112906.198
1362.03; 20866.629; 13134147.526324
1363.04; 21437.882; 13155970.364766
1364.06; 22226.085; 13178595.560687
1365.08; 23106.842; 13202117.329095
1366.10; 23991.801; 13226539.946929
1367.12; 24851.986; 13251838.196702
1368.13; 25719.71; 13278019.751974
1369.15; 26669.185; 13305167.831225
1370.17; 27783.07; 13333449.797508
1371.19; 29116.815; 13363089.459073
1372.21; 30673.188; 13394313.441027
1373.22; 32395.571; 13427290.733942
1374.24; 34181.808; 13462086.339356
1375.26; 35913.052; 13498644.276075
1376.28; 37486.82; 13536804.240885
1377.30; 38842.271; 13576343.996311
1378.31; 39968.843; 13617030.553895
1379.33; 40895.748; 13658660.660911
1380.35; 41666.936; 13701075.80393
1381.37; 42311.493; 13744147.077926
1382.39; 42821.059; 13787737.067995
1383.40; 43143.281; 13831655.066324
1384.42; 43194.54; 13875625.243659
1385.44; 42888.317; 13919283.699998
1386.46; 42170.027; 13962210.967347
1387.48; 41046.702; 14003994.738847
1388.49; 39601.409; 14044307.264302
1389.51; 37986.875; 14082976.264349
1390.53; 36399.135; 14120029.013179
1391.55; 35037.841; 14155696.023342
1392.56; 34063.682; 14190371.381857
1393.58; 33564.029; 14224538.114796
1394.60; 33535.587; 14258675.894854
1395.62; 33888.302; 14293172.724045
1396.64; 34469.386; 14328261.071362
1397.65; 35101.54; 14363992.923976
1398.67; 35626.403; 14400259.065122
1399.69; 35943.465; 14436847.961837
1400.71; 36036.186; 14473531.243833
1401.73; 35980.287; 14510157.623521
1402.74; 35933.198; 14546736.068355
1403.76; 36107.45; 14583491.894726
1404.78; 36733.644; 14620885.15914
1405.80; 38019.868; 14659587.744364
1406.82; 40114.252; 14700422.322256
1407.83; 43075.931; 14744271.760896
1408.85; 46857.816; 14791970.995478
1409.87; 51302.734; 14844194.964603
1410.89; 56153.043; 14901356.339588
1411.91; 61072.839; 14963525.85439
1412.92; 65680.932; 15030386.209065
1413.94; 69591.715; 15101227.571514
1414.96; 72459.61; 15174988.327558
1415.98; 74021.367; 15250338.885336
1417.00; 74129.584; 15325799.602939
1418.01; 72771.222; 15399877.567006
1419.03; 70066.977; 15471202.725645
1420.05; 66250.942; 15538643.325759
1421.07; 61634.339; 15601384.423589
1422.09; 56560.739; 15658960.815166
1423.10; 51362.046; 15711245.161954
1424.12; 46323.732; 15758400.722369
1425.14; 41664.597; 15800813.48438
1426.16; 37531.839; 15839019.277207
1427.18; 34007.949; 15873637.90164
1428.19; 31123.472; 15905320.25262
1429.21; 28869.722; 15934708.383549
1430.23; 27207.814; 15962404.763904
1431.25; 26073.714; 15988946.679241
1432.27; 25381.817; 16014784.274123
1433.28; 25030.566; 16040264.309882
1434.30; 24912.407; 16065624.065483
1435.32; 24927.695; 16090999.383023
1436.34; 24999.217; 16116447.507417
1437.36; 25082.567; 16141980.478195
1438.37; 25168.279; 16167600.700353
1439.39; 25274.553; 16193329.105122
1440.41; 25433.179; 16219218.984127
1441.43; 25674.381; 16245354.396583
1442.44; 26017.176; 16271838.758971
1443.46; 26469.896; 16298783.97053
1444.48; 27041.392; 16326310.940862
1445.50; 27758.605; 16354568.002776
1446.52; 28682.672; 16383765.725247
1447.53; 29915.053; 16414217.957833
1448.55; 31587.74; 16446372.913709
1449.57; 33836.823; 16480817.339424
1450.59; 36764.644; 16518242.160505
1451.61; 40400.517; 16559368.143216
1452.62; 44671.761; 16604842.067753
1453.64; 49394.901; 16655123.945622
1454.66; 54291.862; 16710390.718499
1455.68; 59029.258; 16770479.956077
1456.70; 63272.525; 16834888.6559
1457.71; 66742.408; 16902829.546777
1458.73; 69260.461; 16973333.707204
1459.75; 70772.869; 17045377.433737
1460.77; 71347.345; 17118005.952478
1461.79; 71144.592; 17190428.077119
1462.80; 70372.057; 17262063.794397
1463.82; 69231.903; 17332538.884067
1464.84; 67876.151; 17401633.876746
1465.86; 66379.662; 17469205.508233
1466.88; 64736.612; 17535104.585954
1467.89; 62879.757; 17599113.464776
1468.91; 60715.784; 17660919.512645
1469.93; 58166.074; 17720130.066123
1470.95; 55201.252; 17776322.558863
1471.97; 51860.268; 17829114.074074
1472.98; 48249.585; 17878230.069887
1474.00; 44523.897; 17923553.475603
1475.02; 40854.881; 17965141.981684
1476.04; 37397.352; 18003210.872417
1477.06; 34262.066; 18038088.177304
1478.07; 31501.654; 18070155.502188
1479.09; 29111.752; 18099790.009162
1480.11; 27044.898; 18127320.548454
1481.13; 25231.599; 18153005.227399
1482.15; 23601.842; 18177030.883654
1483.16; 22101.432; 18199529.187896
1484.18; 20700.025; 18220600.920545
1485.20; 19390.654; 18240339.769941
1486.22; 18182.926; 18258849.203985
1487.23; 17093.244; 18276249.388827
1488.25; 16135.382; 18292674.511182
1489.27; 15313.811; 18308263.310097
1490.29; 14620.931; 18323146.787417
1491.31; 14038.188; 18337437.05657
1492.32; 13540.255; 18351220.451749
1493.34; 13100.999; 18364556.702934
1494.36; 12699.682; 18377484.431359
1495.38; 12325.851; 18390031.615652
1496.40; 11981.483; 18402228.248684
1497.41; 11679.517; 18414117.492737
1498.43; 11438.746; 18425761.642962
1499.45; 11276.258; 18437240.387366
1500.47; 11199.611; 18448641.108552
1501.49; 11201.487; 18460043.739226
1502.50; 11259.103; 18471505.020519
1503.52; 11339.292; 18483047.930714
1504.54; 11408.155; 18494660.940188
1505.56; 11442.305; 18506308.712967
1506.58; 11437.72; 18517951.818602
1507.59; 11412.623; 18529569.376372
1508.61; 11402.639; 18541176.771093
1509.63; 11449.158; 18552831.520257
1510.65; 11584.383; 18564623.921857
1511.67; 11818.016; 18576654.152539
1512.68; 12130.298; 18589002.272704
1513.70; 12474.136; 18601700.405349
1514.72; 12786.137; 18614716.14129
1515.74; 13003.373; 18627953.014062
1516.76; 13080.868; 18641268.773133
1517.77; 13004.599; 18654506.893887
1518.79; 12796.341; 18667533.017037
1519.81; 12509.261; 18680266.904764
1520.83; 12215.903; 18692702.166749
1521.85; 11992.15; 18704909.658238
1522.86; 11901.389; 18717024.758961
1523.88; 11982.452; 18729222.378391
1524.90; 12243.397; 18741685.627835
1525.92; 12661.461; 18754574.449013
1526.94; 13188.202; 18767999.469749
1527.95; 13758.113; 18782004.63526
1528.97; 14298.95; 18796560.349803
1529.99; 14742.221; 18811567.29412
1531.01; 15032.564; 18826869.795494
1532.03; 15134.935; 18842276.505915
1533.04; 15038.583; 18857585.134752
1534.06; 14757.097; 18872607.222859
1535.08; 14324.3; 18887188.741772
1536.10; 13786.653; 18901222.959443
1537.11; 13193.737; 18914653.613937
1538.13; 12589.019; 18927468.692073
1539.15; 12003.166; 18939687.39737
1540.17; 11451.433; 18951344.461893
1541.19; 10935.416; 18962476.243942
1542.20; 10448.078; 18973111.936877
1543.22; 9979.9576; 18983271.103061
1544.24; 9524.3087; 18992966.438295
1545.26; 9079.555; 19002209.033513
1546.28; 8648.675; 19011013.011471
1547.29; 8236.4183; 19019397.329895
1548.31; 7846.0527; 19027384.273015
1549.33; 7477.3531; 19034995.895845
1550.35; 7126.8005; 19042250.671206
1551.37; 6789.8233; 19049162.418368
1552.38; 6463.9063; 19055742.396043
1553.40; 6150.9623; 19062003.810272
1554.42; 5857.6943; 19067966.690334
1555.44; 5593.5946; 19073660.728238
1556.46; 5367.3235; 19079124.431926
1557.47; 5182.9792; 19084400.481059
1558.49; 5037.8772; 19089528.822613
1559.51; 4922.8612; 19094540.082871
1560.53; 4825.1261; 19099451.852978
1561.55; 4732.5001; 19104269.333883
1562.56; 4637.5419; 19108990.151443
1563.58; 4539.8876; 19113611.561145
1564.60; 4445.9891; 19118137.386238
1565.62; 4366.3989; 19122582.191908
1566.64; 4311.6683; 19126971.28416
1567.65; 4288.3804; 19131336.670377
1568.67; 4296.6914; 19135710.516827
1569.69; 4330.108; 19140118.379949
1570.71; 4377.3775; 19144574.36139
1571.73; 4425.6458; 19149079.477799
1572.74; 4463.7079; 19153623.339795
1573.76; 4484.3071; 19158188.170906
1574.78; 4484.9183; 19162753.6242
1575.80; 4467.0582; 19167300.896679
1576.82; 4434.6501; 19171815.179145
1577.83; 4392.1831; 19176286.232037
1578.85; 4343.314; 19180707.538238
1579.87; 4290.2596; 19185074.837349
1580.89; 4233.9666; 19189384.832685
1581.90; 4174.77; 19193634.568424
1582.92; 4113.1416; 19197821.569052
1583.94; 4050.1908; 19201944.488484
1584.96; 3987.7475; 19206003.843396
1585.98; 3928.051; 19210002.429827
1586.99; 3873.2141; 19213945.194654
1588.01; 3824.6909; 19217838.564937
1589.03; 3782.9428; 19221689.437507
1590.05; 3747.4059; 19225504.135027
1591.07; 3716.7437; 19229287.619732
1592.08; 3689.2715; 19233043.138917
1593.10; 3663.3828; 19236772.304566
1594.12; 3637.8187; 19240475.446979
1595.14; 3611.6888; 19244151.990335
1596.16; 3584.2639; 19247800.616355
1597.17; 3554.6645; 19251419.11139
1598.19; 3521.6389; 19255003.987871
1599.21; 3483.611; 19258550.153553
1600.23; 3439.0752; 19262050.983683
1601.25; 3387.2656; 19265499.073884
1602.26; 3328.8677; 19268887.717568
1603.28; 3266.4619; 19272212.834794
1604.30; 3204.4276; 19275474.80377
1605.32; 3148.2037; 19278679.539264
1606.34; 3103.0389; 19281838.298937
1607.35; 3072.588; 19284966.06096
1608.37; 3057.8192; 19288078.788979
1609.39; 3056.6333; 19291190.309741
1610.41; 3064.3732; 19294309.709386
1611.43; 3075.0919; 19297440.020281
1612.44; 3083.1702; 19300578.55449
1613.46; 3084.7421; 19303718.688787
1614.48; 3078.4554; 19306852.423493
1615.50; 3065.3376; 19309972.804886
1616.52; 3047.8692; 19313075.404202
1617.53; 3028.651; 19316158.44019
1618.55; 3009.1843; 19319221.659906
1619.57; 2989.2122; 19322264.548979
1620.59; 2966.8339; 19325284.657872
1621.61; 2939.2972; 19328276.735591
1622.62; 2904.1279; 19331233.012425
1623.64; 2860.1487; 19334144.520369
1624.66; 2808.0226; 19337002.966182
1625.68; 2750.165; 19339802.515482
1626.70; 2690.1259; 19342540.947616
1627.71; 2631.729; 19345219.934162
1628.73; 2578.3082; 19347844.54062
1629.75; 2532.2901; 19350422.302621
1630.77; 2495.1813; 19352962.289467
1631.78; 2467.8288; 19355474.432661
1632.80; 2450.7066; 19357969.146235
1633.82; 2443.995; 19360457.027701
1634.84; 2447.3479; 19362948.322283
1635.86; 2459.4304; 19365451.916345
1636.87; 2477.4666; 19367973.870399
1637.89; 2497.0946; 19370515.804996
1638.91; 2512.7529; 19373073.678984
1639.93; 2518.631; 19375637.536699
1640.95; 2509.997; 19378192.60536
1641.96; 2484.5232; 19380721.742779
1642.98; 2443.1756; 19383208.790066
1644.00; 2390.3169; 19385642.029508
1645.02; 2332.896; 19388016.817015
1646.04; 2278.8755; 19390336.613933
1647.05; 2235.2996; 19392612.052495
1648.07; 2206.5393; 19394858.214303
1649.09; 2193.2174; 19397090.814968
1650.11; 2192.1307; 19399322.309384
1651.13; 2197.1943; 19401558.958404
1652.14; 2201.1345; 19403799.618373
1653.16; 2197.4374; 19406036.514849
1654.18; 2181.9971; 19408257.693701
1655.20; 2154.0061; 19410450.37894
1656.22; 2115.8706; 19412604.243939
1657.23; 2072.2268; 19414713.681448
1658.25; 2028.3987; 19416778.503816
1659.27; 1988.7873; 19418803.00349
1660.29; 1955.6764; 19420793.797687
1661.31; 1928.7877; 19422757.220364
1662.32; 1905.6729; 19424697.113183
1663.34; 1882.7685; 19426613.690228
1664.36; 1856.7451; 19428503.776621
1665.38; 1825.7135; 19430362.274216
1666.40; 1789.9144; 19432184.329882
1667.41; 1751.7016; 19433967.486528
1668.43; 1714.8544; 19435713.134357
1669.45; 1683.4614; 19437426.825409
1670.47; 1660.7333; 19439117.380212
1671.49; 1648.1059; 19440795.080853
1672.50; 1644.8794; 19442469.497071
1673.52; 1648.4625; 19444147.560805
1674.54; 1655.1013; 19445832.382522
1675.56; 1660.8371; 19447523.043039
1676.57; 1662.3964; 19449215.290871
1677.59; 1657.7679; 19450902.827007
1678.61; 1646.3492; 19452578.739456
1679.63; 1628.697; 19454236.682763
1680.65; 1606.0317; 19455871.553728
1681.66; 1579.7059; 19457479.626207
1682.68; 1550.8216; 19459058.295707
1683.70; 1520.0949; 19460605.68674
1684.72; 1487.9623; 19462120.368181
1685.74; 1454.8303; 19463601.322697
1686.75; 1421.33; 19465048.175286
1687.77; 1388.4549; 19466461.56246
1688.79; 1357.5234; 19467843.46273
1689.81; 1329.9813; 19469197.326278
1690.83; 1307.1219; 19470527.920016
1691.84; 1289.8235; 19471840.904726
1692.86; 1278.3809; 19473142.241302
1693.88; 1272.4643; 19474437.555
1694.90; 1271.1852; 19475731.566727
1695.92; 1273.2186; 19477027.648285
1696.93; 1276.9281; 19478327.506007
1697.95; 1280.4729; 19479630.972168
1698.97; 1281.9057; 19480935.896847
1699.99; 1279.3045; 19482238.173585
1701.01; 1270.9763; 19483531.972616
1702.02; 1255.7428; 19484810.264637
1703.04; 1233.2659; 19486065.676073
1704.06; 1204.324; 19487291.62593
1705.08; 1170.9281; 19488483.58017
1706.10; 1136.1811; 19489640.163492
1707.11; 1103.847; 19490763.832063
1708.13; 1077.6767; 19491860.86049
1709.15; 1060.6251; 19492940.531119
1710.17; 1054.1434; 19494013.603572
1711.19; 1057.7384; 19495090.335606
1712.20; 1068.9351; 19496178.465409
1713.22; 1083.6807; 19497281.605604
1714.24; 1097.1164; 19498398.422799
1715.26; 1104.5433; 19499522.800246
1716.28; 1102.3561; 19500644.951238
1717.29; 1088.7286; 19501753.229984
1718.31; 1063.9002; 19502836.234496
1719.33; 1030.0209; 19503884.751327
1720.35; 990.62171; 19504893.161483
1721.37; 949.86561; 19505860.08369
1722.38; 911.76942; 19506788.225613
1723.40; 879.56903; 19507683.588932
1724.42; 855.33753; 19508554.285627
1725.44; 839.88303; 19509409.250309
1726.45; 832.87904; 19510257.085236
1727.47; 833.1353; 19511105.181025
1728.49; 838.91062; 19511959.155831
1729.51; 848.19451; 19512822.581238
1730.53; 858.92492; 19513696.929743
1731.54; 869.14578; 19514581.682641
1732.56; 877.12744; 19515474.560528
1733.58; 881.4715; 19516371.860476
1734.60; 881.20587; 19517268.890031
1735.62; 875.85877; 19518160.476462
1736.63; 865.49142; 19519041.509382
1737.65; 850.67457; 19519907.459387
1738.67; 832.40798; 19520754.814791
1739.69; 811.99809; 19521581.393811
1740.71; 790.91669; 19522386.512869
1741.72; 770.65995; 19523171.011445
1742.74; 752.61601; 19523937.142067
1743.76; 737.93786; 19524688.33097
1744.78; 727.41711; 19525428.8102
1745.80; 721.36432; 19526163.127948
1746.81; 719.52061; 19526895.568879
1747.83; 721.04021; 19527629.556697
1748.85; 724.5835; 19528367.151434
1749.87; 728.53757; 19529108.771247
1750.89; 731.3401; 19529853.243914
1751.90; 731.83677; 19530598.222166
1752.92; 729.57178; 19531340.894752
1753.94; 724.91221; 19532078.824099
1754.96; 718.94592; 19532810.680023
1755.98; 713.15995; 19533536.646079
1756.99; 708.98058; 19534258.357713
1758.01; 707.30952; 19534978.368282
1759.03; 708.20208; 19535699.287437
1760.05; 710.79454; 19536422.845608
1761.07; 713.51111; 19537149.169124
1762.08; 714.49025; 19537876.489363
1763.10; 712.0984; 19538601.374806
1764.12; 705.37063; 19539319.411673
1765.14; 694.24351; 19540026.121614
1766.16; 679.51595; 19540717.839524
1767.17; 662.56421; 19541392.301296
1768.19; 644.91634; 19542048.798303
1769.21; 627.83149; 19542687.903668
1770.23; 612.01913; 19543310.912734
1771.24; 597.57711; 19543919.220446
1772.26; 584.14711; 19544513.856999
1773.28; 571.21082; 19545095.32497
1774.30; 558.40547; 19545663.757639
1775.32; 545.73774; 19546219.295109
1776.33; 533.61839; 19546762.495603
1777.35; 522.70847; 19547294.590268
1778.37; 513.6379; 19547817.451491
1779.39; 506.70274; 19548333.253014
1780.41; 501.65457; 19548843.915714
1781.42; 497.66308; 19549350.515258
1782.44; 493.47298; 19549852.849455
1783.46; 487.71073; 19550349.317937
1784.48; 479.24777; 19550837.171488
1785.50; 467.5091; 19551313.075573
1786.51; 452.63592; 19551773.839411
1787.53; 435.45835; 19552217.117219
1788.55; 417.29333; 19552641.903817
1789.57; 399.63439; 19553048.714379
1790.59; 383.82672; 19553439.43342
1791.60; 370.81742; 19553816.909552
1792.62; 361.03934; 19554184.432018
1793.64; 354.44032; 19554545.236974
1794.66; 350.62368; 19554902.156748
1795.68; 349.03572; 19555257.460052
1796.69; 349.1307; 19555612.860038
1797.71; 350.46178; 19555969.615005
1798.73; 352.68148; 19556328.629536
1799.75; 355.47203; 19556690.484724
1800.77; 358.45267; 19557055.374074
1801.78; 361.11789; 19557422.976505
1802.80; 362.84592; 19557792.337996
1803.82; 362.98708; 19558161.843183
1804.84; 361.0079; 19558529.333644
1805.86; 356.64175; 19558892.37956
1806.87; 349.99018; 19559248.654458
1807.89; 341.53255; 19559596.31986
1808.91; 332.03236; 19559934.31448
1809.93; 322.36324; 19560262.466342
1810.95; 313.30627; 19560581.39861
1811.96; 305.38068; 19560892.26296
1812.98; 298.75875; 19561196.386474
1814.00; 293.28809; 19561494.941092
1815.02; 288.60762; 19561788.731198
1816.04; 284.31362; 19562078.150192
1817.05; 280.11711; 19562363.297319
1818.07; 275.94046; 19562644.192804
1819.09; 271.92525; 19562921.000974
1820.11; 268.35653; 19563194.176337
1821.12; 265.53848; 19563464.48305
1822.14; 263.67149; 19563732.889247
1823.16; 262.77689; 19564000.384781
1824.18; 262.69469; 19564267.796639
1825.20; 263.15002; 19564535.672007
1826.21; 263.8578; 19564804.267858
1827.23; 264.62153; 19565073.641156
1828.25; 265.38675; 19565343.793412
1829.27; 266.22906; 19565614.803108
1830.29; 267.2841; 19565886.886791
1831.30; 268.65009; 19566160.360987
1832.32; 270.30473; 19566435.519537
1833.34; 272.07244; 19566712.477536
1834.36; 273.65777; 19566991.049338
1835.38; 274.73496; 19567270.717671
1836.39; 275.06105; 19567550.717954
1837.41; 274.57059; 19567830.218971
1838.43; 273.41593; 19568108.544594
1839.45; 271.93692; 19568385.364641
1840.47; 270.56874; 19568660.791941
1841.48; 269.71811; 19568935.353341
1842.50; 269.64753; 19569209.842892
1843.52; 270.4026; 19569485.101074
1844.54; 271.80113; 19569761.782897
1845.56; 273.48133; 19570040.175086
1846.57; 274.98896; 19570320.101985
1847.59; 275.87506; 19570600.930891
1848.61; 275.77855; 19570881.661549
1849.63; 274.4794; 19571161.069731
1850.65; 271.92069; 19571437.873261
1851.66; 268.20724; 19571710.89666
1852.68; 263.59055; 19571979.220465
1853.70; 258.44554; 19572242.306877
1854.72; 253.23803; 19572500.092259
1855.74; 248.47795; 19572753.032095
1856.75; 244.65595; 19573002.081296
1857.77; 242.16826; 19573248.59814
1858.79; 241.24514; 19573494.175281
1859.81; 241.90323; 19573740.422332
1860.83; 243.94029; 19573988.743021
1861.84; 246.97884; 19574240.156823
1862.86; 250.54921; 19574495.205105
1863.88; 254.18749; 19574753.957002
1864.90; 257.51806; 19575016.099277
1865.91; 260.29625; 19575281.069631
1866.93; 262.40303; 19575548.184587
1867.95; 263.80334; 19575816.725006
1868.97; 264.49441; 19576085.968905
1869.99; 264.47263; 19576355.190633
1871.00; 263.73712; 19576623.66364
1872.02; 262.32785; 19576890.702076
1873.04; 260.3768; 19577155.754422
1874.06; 258.14023; 19577418.530033
1875.08; 255.98539; 19577679.112118
1876.09; 254.32353; 19577938.002501
1877.11; 253.50586; 19578196.060527
1878.13; 253.71937; 19578454.335896
1879.15; 254.92464; 19578713.838176
1880.17; 256.86541; 19578975.316082
1881.18; 259.15331; 19579239.122968
1882.20; 261.401; 19579505.217902
1883.22; 263.35619; 19579773.303138
1884.24; 264.98575; 19580043.0472
1885.26; 266.47633; 19580314.308608
1886.27; 268.14893; 19580587.272647
1887.29; 270.31787; 19580862.444572
1888.31; 273.14667; 19581140.496091
1889.33; 276.55586; 19581422.018024
1890.35; 280.21971; 19581707.269593
1891.36; 283.6568; 19581996.019971
1892.38; 286.38582; 19582287.548373
1893.40; 288.09436; 19582580.815997
1894.42; 288.76373; 19582874.765018
1895.44; 288.7075; 19583168.656798
1896.45; 288.50967; 19583462.34719
1897.47; 288.88055; 19583756.41512
1898.49; 290.47313; 19584052.10423
1899.51; 293.71323; 19584351.091629
1900.53; 298.69079; 19584655.145963
1901.54; 305.14021; 19584965.765526
1902.56; 312.51191; 19585283.889165
1903.58; 320.11226; 19585609.749637
1904.60; 327.27189; 19585942.898301
1905.62; 333.49642; 19586282.383264
1906.63; 338.55971; 19586627.022434
1907.65; 342.5156; 19586975.688539
1908.67; 345.62644; 19587327.521336
1909.69; 348.22946; 19587682.003901
1910.71; 350.58122; 19588038.880452
1911.72; 352.72844; 19588397.942784
1912.74; 354.45004; 19588758.757628
1913.76; 355.29655; 19589120.434182
1914.78; 354.72527; 19589481.529196
1915.79; 352.29782; 19589840.153175
1916.81; 347.8822; 19590194.282239
1917.83; 341.79225; 19590542.211998
1918.85; 334.80964; 19590883.03376
1919.87; 328.06509; 19591216.989864
1920.88; 322.79902; 19591545.585333
1921.90; 320.0627; 19591871.39535
1922.92; 320.44582; 19592197.595364
1923.94; 323.91416; 19592527.325999
1924.96; 329.8116; 19592863.059977
1925.97; 337.03108; 19593206.14307
1926.99; 344.30643; 19593556.632155
1928.01; 350.53857; 19593913.465291
1929.03; 355.05891; 19594274.89994
1930.05; 357.75426; 19594639.078338
1931.06; 359.02337; 19595004.54864
1932.08; 359.58966; 19595370.595396
1933.10; 360.23834; 19595737.30248
1934.12; 361.56523; 19596105.360278
1935.14; 363.81267; 19596475.70588
1936.15; 366.83247; 19596849.125503
1937.17; 370.1699; 19597225.942485
1938.19; 373.22488; 19597605.869308
1939.21; 375.42808; 19597988.038889
1940.23; 376.37631; 19598371.173729
1941.24; 375.89689; 19598753.820547
1942.26; 374.0423; 19599134.57947
1943.28; 371.04112; 19599512.283316
1944.30; 367.23956; 19599886.117346
1945.32; 363.05854; 19600255.695273
1946.33; 358.9709; 19600621.112157
1947.35; 355.48378; 19600982.97931
1948.37; 353.10169; 19601342.421591
1949.39; 352.25254; 19601700.999479
1950.41; 353.17944; 19602060.520911
1951.42; 355.82502; 19602422.735426
1952.44; 359.75306; 19602788.948522
1953.46; 364.15263; 19603159.640186
1954.48; 367.95109; 19603534.198519
1955.50; 370.0289; 19603910.871974
1956.51; 369.49151; 19604286.998384
1957.53; 365.92638; 19604659.495646
1958.55; 359.56675; 19605025.519082
1959.57; 351.30236; 19605383.129722
1960.58; 342.51756; 19605731.797822
1961.60; 334.78713; 19606072.596671
1962.62; 329.50397; 19606408.017492
1963.64; 327.53782; 19606741.436862
1964.66; 329.01943; 19607076.364448
1965.67; 333.31246; 19607415.662152
1966.69; 339.1833; 19607760.93611
1967.71; 345.12278; 19608112.256207
1968.73; 349.73068; 19608468.266949
1969.75; 352.05674; 19608826.645519
1970.76; 351.80675; 19609184.769605
1971.78; 349.36368; 19609540.406751
1972.80; 345.62918; 19609892.242347
1973.82; 341.74224; 19610240.121196
1974.84; 338.76321; 19610584.967522
1975.85; 337.41447; 19610928.440893
1976.87; 337.94281; 19611272.452091
1977.89; 340.12558; 19611618.685257
1978.91; 343.3969; 19611968.248483
1979.93; 347.03783; 19612321.518017
1980.94; 350.36508; 19612678.174549
1981.96; 352.86642; 19613037.377343
1982.98; 354.25969; 19613397.998424
1984.00; 354.48298; 19613758.846798
1985.02; 353.64414; 19614118.841273
1986.03; 351.96181; 19614477.123213
1987.05; 349.71896; 19614833.122021
1988.07; 347.23211; 19615186.589324
1989.09; 344.82482; 19615537.606108
1990.11; 342.79026; 19615886.551796
1991.12; 341.33708; 19616234.018218
1992.14; 340.52867; 19616580.661706
1993.16; 340.23962; 19616927.010961
1994.18; 340.15653; 19617273.275632
1995.20; 339.83796; 19617619.216014
1996.21; 338.82676; 19617964.127036
1997.23; 336.78377; 19618306.958383
1998.25; 333.59845; 19618646.547214
1999.27; 329.43509; 19618981.897924
2000.29; 324.69417; 19619312.422578
2001.30; 319.89904; 19619638.066001
2002.32; 315.54647; 19619959.278692
2003.34; 311.9735; 19620276.854252
2004.36; 309.28717; 19620591.695244
2005.37; 307.37908; 19620904.593879
2006.39; 306.01406; 19621216.102983
2007.41; 304.95426; 19621526.53326
2008.43; 304.06767; 19621836.061023
2009.45; 303.37835; 19622144.887088
2010.46; 303.0404; 19622453.369138
2011.48; 303.24844; 19622762.062967
2012.50; 304.12205; 19623071.646093
2013.52; 305.61066; 19623382.744552
2014.54; 307.45624; 19623695.72174
2015.55; 309.22867; 19624010.503179
2016.57; 310.42188; 19624326.499252
2017.59; 310.57929; 19624642.655572
2018.61; 309.40956; 19624957.621154
2019.63; 306.86058; 19625269.991987
2020.64; 303.13605; 19625578.571402
2021.66; 298.65641; 19625882.590744
2022.68; 293.97966; 19626181.849353
2023.70; 289.70207; 19626476.753561
2024.72; 286.35744; 19626768.253082
2025.73; 284.32793; 19627057.686642
2026.75; 283.77542; 19627346.557776
2027.77; 284.60133; 19627636.269651
2028.79; 286.44311; 19627927.856377
2029.81; 288.71545; 19628221.756247
2030.82; 290.69859; 19628517.674869
2031.84; 291.66534; 19628814.577602
2032.86; 291.02461; 19629110.828098
2033.88; 288.44821; 19629404.455924
2034.90; 283.94544; 19629693.500134
2035.91; 277.86013; 19629976.34976
2036.93; 270.78539; 19630251.997598
2037.95; 263.41727; 19630520.145013
2038.97; 256.38915; 19630781.138099
2039.99; 250.13635; 19631035.766109
2041.00; 244.83185; 19631284.99437
2042.02; 240.40971; 19631529.721081
2043.04; 236.66308; 19631770.633882
2044.06; 233.37801; 19632008.202621
2045.08; 230.45261; 19632242.793432
2046.09; 227.95784; 19632474.84468
2047.11; 226.11829; 19632705.023339
2048.13; 225.22075; 19632934.288341
2049.15; 225.48435; 19633163.821676
2050.17; 226.93901; 19633394.835791
2051.18; 229.35582; 19633628.310117
2052.20; 232.25488; 19633864.735565
2053.22; 234.99083; 19634103.946091
2054.24; 236.89232; 19634345.092254
2055.25; 237.41692; 19634586.772429
2056.27; 236.28026; 19634827.295538
2057.29; 233.52781; 19635065.016767
2058.31; 229.5337; 19635298.672172
2059.33; 224.92976; 19635527.640962
2060.34; 220.48243; 19635752.082565
2061.36; 216.94507; 19635972.923282
2062.38; 214.91533; 19636191.697818
2063.40; 214.72491; 19636410.27851
2064.42; 216.381; 19636630.545033
2065.43; 219.56915; 19636854.056953
2066.45; 223.71478; 19637081.788944
2067.47; 228.08946; 19637313.974173
2068.49; 231.93896; 19637550.078023
2069.51; 234.60604; 19637788.896852
2070.52; 235.62382; 19638028.751729
2071.54; 234.76396; 19638267.731309
2072.56; 232.03724; 19638503.935211
2073.58; 227.65596; 19638735.679151
2074.60; 221.97602; 19638961.641164
2075.61; 215.4375; 19639180.947245
2076.63; 208.51617; 19639393.207705
2077.65; 201.68932; 19639598.51873
2078.67; 195.41034; 19639797.438024
2079.69; 190.08292; 19639990.93423
2080.70; 186.02911; 19640180.303839
2081.72; 183.45309; 19640367.051169
2082.74; 182.41053; 19640552.737214
2083.76; 182.79722; 19640738.816901
2084.78; 184.36679; 19640926.494336
2085.79; 186.77717; 19641116.625435
2086.81; 189.65407; 19641309.685098
2087.83; 192.65135; 19641505.795858
2088.85; 195.48896; 19641704.795184
2089.87; 197.95882; 19641906.308724
2090.88; 199.90344; 19642109.801803
2091.90; 201.18548; 19642314.59994
2092.92; 201.67118; 19642519.892502
2093.94; 201.24414; 19642724.750357
2094.96; 199.85013; 19642928.189162
2095.97; 197.55565; 19643129.292289
2096.99; 194.59135; 19643327.377882
2098.01; 191.35208; 19643522.166044
2099.03; 188.34056; 19643713.888606
2100.04; 186.06397; 19643903.293699
2101.06; 184.91481; 19644091.528995
2102.08; 185.07703; 19644279.92943
2103.10; 186.4923; 19644469.770546
2104.12; 188.89934; 19644662.061921
2105.13; 191.93141; 19644857.439816
2106.15; 195.23391; 19645056.179508
2107.17; 198.55625; 19645258.301204
2108.19; 201.78374; 19645463.70834
2109.21; 204.90052; 19645672.288232
2110.22; 207.90483; 19645883.926376
2111.24; 210.71785; 19646098.428057
2112.26; 213.13097; 19646315.386183
2113.28; 214.81914; 19646534.062795
2114.30; 215.41998; 19646753.351042
2115.31; 214.64914; 19646971.854607
2116.33; 212.40646; 19647188.075216
2117.35; 208.83053; 19647400.655681
2118.37; 204.28009; 19647608.603996
2119.39; 199.25028; 19647811.432185
2120.40; 194.25726; 19648009.177689
2121.42; 189.73491; 19648202.319641
2122.44; 185.97894; 19648391.638181
2123.46; 183.1499; 19648578.076871
2124.48; 181.31966; 19648762.652464
2125.49; 180.52714; 19648946.4213
2126.51; 180.80679; 19649130.474813
2127.53; 182.16979; 19649315.915794
2128.55; 184.54336; 19649503.772971
2129.57; 187.69889; 19649694.842339
2130.58; 191.21048; 19649889.486355
2131.60; 194.47881; 19650087.457396
2132.62; 196.83094; 19650287.822804
2133.64; 197.67584; 19650489.04828
2134.66; 196.67003; 19650689.249884
2135.67; 193.83821; 19650886.568813
2136.69; 189.60461; 19651079.578121
2137.71; 184.71822; 19651267.613293
2138.73; 180.0887; 19651450.935824
2139.75; 176.5783; 19651630.684917
2140.76; 174.80789; 19651808.631802
2141.78; 175.02987; 19651986.804659
2142.80; 177.09901; 19652167.083804
2143.82; 180.54272; 19652350.868503
2144.84; 184.70527; 19652538.8905
2145.85; 188.92193; 19652731.204877
2146.87; 192.67536; 19652927.340081
2147.89; 195.69502; 19653126.549168
2148.91; 197.97855; 19653328.082792
2149.92; 199.7356; 19653531.405014
2150.94; 201.27445; 19653736.293721
2151.96; 202.86587; 19653942.802422
2152.98; 204.62362; 19654151.10044
2154.00; 206.43685; 19654361.244245
2155.01; 207.97574; 19654572.954578
2156.03; 208.77211; 19654785.475575
2157.05; 208.35457; 19654997.571536
2158.07; 206.4005; 19655207.678336
2159.09; 202.85901; 19655414.180056
2160.10; 198.00532; 19655615.740926
2161.12; 192.40565; 19655811.601572
2162.14; 186.79929; 19656001.755189
2163.16; 181.93096; 19656186.953052
2164.18; 178.38342; 19656368.539671
2165.19; 176.46084; 19656548.169187
2166.21; 176.15621; 19656727.488607
2167.23; 177.20774; 19656907.878438
2168.25; 179.21905; 19657090.315695
2169.27; 181.79796; 19657275.378168
2170.28; 184.66552; 19657463.3597
2171.30; 187.70199; 19657654.432229
2172.32; 190.92273; 19657848.783326
2173.34; 194.40429; 19658046.678503
2174.36; 198.19802; 19658248.435539
2175.37; 202.26913; 19658454.336789
2176.39; 206.48459; 19658664.529187
2177.41; 210.65015; 19658878.961953
2178.43; 214.57591; 19659097.390967
2179.45; 218.1393; 19659319.447363
2180.46; 221.31924; 19659544.740801
2181.48; 224.19002; 19659772.956568
2182.50; 226.88305; 19660003.913723
2183.52; 229.53788; 19660237.573383
2184.54; 232.26644; 19660474.0106
2185.55; 235.14532; 19660713.378388
2186.57; 238.23568; 19660955.892033
2187.59; 241.6165; 19661201.847207
2188.61; 245.41081; 19661451.664825
2189.63; 249.78919; 19661705.939442
2190.64; 254.94634; 19661965.463815
2191.66; 261.0595; 19662231.211119
2192.68; 268.24473; 19662504.272681
2193.70; 276.52601; 19662785.764226
2194.71; 285.82316; 19663076.719872
2195.73; 295.95437; 19663377.988646
2196.75; 306.64233; 19663690.13731
2197.77; 317.51531; 19664013.354192
2198.79; 328.10318; 19664347.349072
2199.80; 337.84078; 19664691.256405
2200.82; 346.09694; 19665043.568158
2201.84; 352.24465; 19665402.138009
2202.86; 355.77257; 19665764.299131
2203.88; 356.41793; 19666127.117202
2204.89; 354.28247; 19666487.761467
2205.91; 349.88714; 19666843.931482
2206.93; 344.13176; 19667194.242765
2207.95; 338.15144; 19667538.466335
2208.97; 333.09474; 19667877.542402
2209.98; 329.87681; 19668213.342763
2211.00; 328.97446; 19668548.224566
2212.02; 330.3226; 19668884.478716
2213.04; 333.3453; 19669223.809847
2214.06; 337.11657; 19669566.97997
2215.07; 340.60906; 19669913.705297
2216.09; 342.9636; 19670262.827438
2217.11; 343.70642; 19670612.705738
2218.13; 342.85543; 19670961.71777
2219.15; 340.88709; 19671308.726112
2220.16; 338.57305; 19671653.378871
2221.18; 336.73078; 19671996.156276
2222.20; 335.95562; 19672338.144604
2223.22; 336.40885; 19672680.594299
2224.24; 337.72364; 19673024.382393
2225.25; 339.0626; 19673369.533491
2226.27; 339.32151; 19673714.94815
2227.29; 337.43369; 19674058.441083
2228.31; 332.69814; 19674397.113435
2229.33; 325.04182; 19674727.991985
2230.34; 315.13695; 19675048.787799
2231.36; 304.32893; 19675358.581516
2232.38; 294.38031; 19675658.247973
2233.40; 287.08858; 19675950.491759
2234.42; 283.87435; 19676239.463596
2235.43; 285.44888; 19676530.038241
2236.45; 291.64991; 19676826.925269
2237.47; 301.48808; 19677133.827123
2238.49; 313.38644; 19677452.840994
2239.51; 325.54215; 19677784.228853
2240.52; 336.30924; 19678126.577144
2241.54; 344.50416; 19678477.267514
2242.56; 349.56857; 19678833.11323
2243.58; 351.57368; 19679191.000069
2244.59; 351.09916; 19679548.403863
2245.61; 349.04913; 19679903.720818
2246.63; 346.47116; 19680256.413507
2247.65; 344.42179; 19680607.020023
2248.67; 343.88843; 19680957.083602
2249.68; 345.74668; 19681309.038802
2250.70; 350.71901; 19681666.055622
2251.72; 359.30883; 19682031.816504
2252.74; 371.70826; 19682410.199473
2253.76; 387.70529; 19682804.866732
2254.77; 406.63211; 19683218.800674
2255.79; 427.39296; 19683653.868266
2256.81; 448.58691; 19684110.510383
2257.83; 468.70783; 19684587.634725
2258.85; 486.37525; 19685082.743742
2259.86; 500.53743; 19685592.269249
2260.88; 510.59732; 19686112.035289
2261.90; 516.43907; 19686637.747975
2262.92; 518.36531; 19687165.421496
2263.94; 516.9805; 19687691.685338
2264.95; 513.06327; 19688213.961611
2265.97; 507.46026; 19688730.534257
2266.99; 501.01141; 19689240.542252
2268.01; 494.49532; 19689743.91715
2269.03; 488.57253; 19690241.262899
2270.04; 483.71081; 19690733.659627
2271.06; 480.09541; 19691222.37604
2272.08; 477.54927; 19691708.500592
2273.10; 475.50143; 19692192.540524
2274.12; 473.03841; 19692674.073218
2275.13; 469.05192; 19693151.547827
2276.15; 462.46421; 19693622.316438
2277.17; 452.483; 19694082.92461
2278.19; 438.82063; 19694529.625071
2279.21; 421.81672; 19694959.016293
2280.22; 402.42688; 19695368.669496
2281.24; 382.07474; 19695757.605095
2282.26; 362.40013; 19696126.512787
2283.28; 344.96039; 19696477.667581
2284.30; 330.95008; 19696814.560483
2285.31; 320.9957; 19697141.320254
2286.33; 315.06212; 19697462.039895
2287.35; 312.48201; 19697780.133101
2288.37; 312.09613; 19698097.833494
2289.38; 312.47369; 19698415.918222
2290.40; 312.17073; 19698733.694553
2291.42; 309.97978; 19699049.240589
2292.44; 305.12646; 19699359.846162
2293.46; 297.37854; 19699662.564685
2294.47; 287.04882; 19699954.767996
2295.49; 274.89493; 19700234.599176
2296.51; 261.94098; 19700501.243794
2297.53; 249.26353; 19700754.983308
2298.55; 237.79156; 19700997.044852
2299.56; 228.16407; 19701229.306027
2300.58; 220.67063; 19701453.939205
2301.60; 215.27608; 19701673.080964
2302.62; 211.70779; 19701888.590358
2303.64; 209.5706; 19702101.924183
2304.65; 208.45431; 19702314.121674
2305.67; 208.00978; 19702525.866656
2306.69; 207.98661; 19702737.588055
2307.71; 208.24013; 19702949.567522
2308.73; 208.72243; 19703162.037946
2309.74; 209.46974; 19703375.2691
2310.76; 210.58974; 19703589.640364
2311.78; 212.24358; 19703805.695166
2312.80; 214.61418; 19704024.163143
2313.82; 217.85686; 19704245.93202
2314.83; 222.03868; 19704471.957816
2315.85; 227.08378; 19704703.119306
2316.87; 232.74618; 19704940.044871
2317.89; 238.62719; 19705182.957051
2318.91; 244.24079; 19705431.583631
2319.92; 249.11322; 19705685.17014
2320.94; 252.88949; 19705942.600732
2321.96; 255.41472; 19706202.601897
2322.98; 256.76515; 19706463.977743
2324.00; 257.21909; 19706725.815678
2325.01; 257.1764; 19706987.61016
2326.03; 257.05024; 19707249.276213
2327.05; 257.16128; 19707511.055301
2328.07; 257.6622; 19707773.344304
2329.09; 258.51003; 19708036.496356
2330.10; 259.49058; 19708300.646571
2331.12; 260.28646; 19708565.606956
2332.14; 260.57033; 19708830.856305
2333.16; 260.10045; 19709095.627339
2334.18; 258.79505; 19709359.069535
2335.19; 256.76642; 19709620.446668
2336.21; 254.3043; 19709879.317469
2337.23; 251.81036; 19710135.649553
2338.25; 249.69904; 19710389.832405
2339.26; 248.29166; 19710642.582601
2340.28; 247.73589; 19710894.767048
2341.30; 247.9779; 19711147.197849
2342.32; 248.79951; 19711400.465018
2343.34; 249.91114; 19711654.863779
2344.35; 251.07011; 19711910.442316
2345.37; 252.18163; 19712167.152337
2346.39; 253.3424; 19712425.043964
2347.41; 254.8045; 19712684.423955
2348.43; 256.86609; 19712945.902551
2349.44; 259.72297; 19713210.28933
2350.46; 263.33353; 19713478.351496
2351.48; 267.3486; 19713750.500831
2352.50; 271.13945; 19714026.509094
2353.52; 273.92577; 19714305.353709
2354.53; 274.97314; 19714585.264501
2355.55; 273.80676; 19714863.987971
2356.57; 270.38185; 19715139.225025
2357.59; 265.16269; 19715409.149203
2358.61; 259.08661; 19715672.888188
2359.62; 253.41761; 19715930.856381
2360.64; 249.52009; 19716184.857061
2361.66; 248.59902; 19716437.920137
2362.68; 251.45951; 19716693.895062
2363.70; 258.33419; 19716956.868122
2364.71; 268.81591; 19717230.511124
2365.73; 281.91457; 19717517.487994
2366.75; 296.23458; 19717819.042018
2367.77; 310.24372; 19718134.856741
2368.79; 322.5805; 19718463.229773
2369.80; 332.33181; 19718801.529219
2370.82; 339.21216; 19719146.832559
2371.84; 343.59454; 19719496.596979
2372.86; 346.37907; 19719849.195926
2373.88; 348.73012; 19720204.188144
2374.89; 351.75275; 19720562.257261
2375.91; 356.19929; 19720924.85277
2376.93; 362.2899; 19721293.648251
2377.95; 369.69497; 19721669.981781
2378.97; 377.67627; 19722054.43993
2379.98; 385.33243; 19722446.691712
2381.00; 391.86391; 19722845.59226
2382.02; 396.77201; 19723249.489046
2383.04; 399.93633; 19723656.60697
2384.05; 401.56358; 19724065.381369
2385.07; 402.04831; 19724474.649204
2386.09; 401.81441; 19724883.678936
2387.11; 401.20576; 19725292.089091
2388.13; 400.46556; 19725699.745751
2389.14; 399.8002; 19726106.725105
2390.16; 399.48373; 19726513.382305
2391.18; 399.93878; 19726920.50273
2392.20; 401.73838; 19727329.455065
2393.22; 405.50581; 19727742.242481
2394.23; 411.73395; 19728161.369877
2395.25; 420.58291; 19728589.50513
2396.27; 431.73095; 19729028.988609
2397.29; 444.3419; 19729481.309494
2398.31; 457.17665; 19729946.695597
2399.32; 468.82989; 19730423.944191
2400.34; 478.03225; 19730910.560398
2401.36; 483.93611; 19731403.186472
2402.38; 486.30719; 19731898.226206
2403.40; 485.57209; 19732392.517638
2404.41; 482.71254; 19732883.898178
2405.43; 479.0393; 19733371.539514
2406.45; 475.90759; 19733855.992901
2407.47; 474.4462; 19734338.958661
2408.49; 475.36134; 19734822.855993
2409.50; 478.85029; 19735310.30492
2410.52; 484.62787; 19735803.635178
2411.54; 492.03998; 19736304.510643
2412.56; 500.22119; 19736813.714228
2413.58; 508.25111; 19737331.091922
2414.59; 515.27493; 19737855.619566
2415.61; 520.57304; 19738385.54046
2416.63; 523.58472; 19738918.527112
2417.65; 523.90561; 19739451.840413
2418.67; 521.28287; 19739982.483877
2419.68; 515.62545; 19740507.368339
2420.70; 507.03282; 19741023.505867
2421.72; 495.82984; 19741528.239251
2422.74; 482.58538; 19742019.490346
2423.76; 468.0913; 19742495.98709
2424.77; 453.28951; 19742957.416251
2425.79; 439.15269; 19743404.454745
2426.81; 426.54336; 19743838.657478
2427.83; 416.088; 19744262.217109
2428.85; 408.10246; 19744677.647806
2429.86; 402.59005; 19745087.467108
2430.88; 399.31012; 19745493.947577
2431.90; 397.88988; 19745898.98231
2432.92; 397.93689; 19746304.064896
2433.93; 399.10975; 19746710.341401
2434.95; 401.12299; 19747118.667297
2435.97; 403.69099; 19747529.607306
2436.99; 406.44547; 19747943.351258
2438.01; 408.87791; 19748359.571323
2439.02; 410.35417; 19748777.294163
2440.04; 410.22284; 19749194.88331
2441.06; 407.99901; 19749610.208699
2442.08; 403.56778; 19750021.023281
2443.10; 397.33051; 19750425.488596
2444.11; 390.22495; 19750822.720754
2445.13; 383.58558; 19751213.194323
2446.15; 378.86442; 19751598.861955
2447.17; 377.2841; 19751982.920888
2448.19; 379.52603; 19752369.262012
2449.20; 385.55272; 19752761.738047
2450.22; 394.62443; 19753163.448692
2451.24; 405.50896; 19753576.239317
2452.26; 416.82049; 19754000.544592
2453.28; 427.38207; 19754435.601098
2454.29; 436.50095; 19754879.940228
2455.31; 444.07861; 19755331.993085
2456.33; 450.53503; 19755790.6183
2457.35; 456.58879; 19756255.405987
2458.37; 462.97837; 19756726.69799
2459.38; 470.22153; 19757205.363215
2460.40; 478.48737; 19757692.442706
2461.42; 487.61; 19758188.808641
2462.44; 497.22258; 19758694.959775
2463.46; 506.95337; 19759211.016433
2464.47; 516.61224; 19759736.905398
2465.49; 526.30788; 19760272.664109
2466.51; 536.46369; 19760818.760991
2467.53; 547.7321; 19761376.328631
2468.55; 560.83264; 19761947.232055
2469.56; 576.35228; 19762533.933807
2470.58; 594.55009; 19763139.160147
2471.60; 615.20498; 19763765.412267
2472.62; 637.54004; 19764414.400517
2473.64; 660.24967; 19765086.50619
2474.65; 681.64292; 19765780.389271
2475.67; 699.89605; 19766492.853248
2476.69; 713.37847; 19767219.041744
2477.71; 720.98666; 19767952.975055
2478.72; 722.4015; 19768688.348611
2479.74; 718.18803; 19769419.433036
2480.76; 709.68964; 19770141.866468
2481.78; 698.7249; 19770853.138268
2482.80; 687.15929; 19771552.636769
2483.81; 676.47186; 19772241.255928
2484.83; 667.44819; 19772920.689388
2485.85; 660.09635; 19773592.638989
2486.87; 653.81105; 19774258.190425
2487.89; 647.72648; 19774917.548035
2488.90; 641.13129; 19775570.192024
2489.92; 633.79676; 19776215.369772
2490.94; 626.10105; 19776852.713619
2491.96; 618.90772; 19777482.734969
2492.98; 613.24759; 19778106.994557
2493.99; 609.92519; 19778727.872078
2495.01; 609.19688; 19779348.008216
2496.03; 610.63908; 19779969.612452
2497.05; 613.25295; 19780593.87749
2498.07; 615.76659; 19781220.701306
2499.08; 617.02828; 19781848.809469
2500.10; 616.359; 19782476.23633
2501.12; 613.75526; 19783101.012701
2502.14; 609.89107; 19783721.855491
2503.16; 605.9355; 19784338.671683
2504.17; 603.25497; 19784952.759213
2505.19; 603.08998; 19785566.678784
2506.21; 606.28472; 19786183.850465
2507.23; 613.1163; 19786807.976403
2508.25; 623.2359; 19787442.40365
2509.26; 635.71152; 19788089.530543
2510.28; 649.15485; 19788750.342171
2511.30; 661.91693; 19789424.145044
2512.32; 672.33803; 19790108.556143
2513.34; 679.02757; 19790799.776909
2514.35; 681.13033; 19791493.138197
2515.37; 678.51601; 19792183.83822
2516.39; 671.82571; 19792867.727803
2517.41; 662.33222; 19793541.95342
2518.43; 651.62171; 19794205.276201
2519.44; 641.16796; 19794857.957519
2520.46; 631.92222; 19795501.227069
2521.48; 624.05726; 19796136.490428
2522.50; 616.96966; 19796764.538918
2523.52; 609.56488; 19797385.04966
2524.53; 600.75056; 19797996.587811
2525.55; 589.98055; 19798597.16255
2526.57; 577.65843; 19799185.193908
2527.59; 565.24328; 19799760.587173
2528.60; 554.99285; 19800325.545948
2529.62; 549.40259; 19800884.81408
2530.64; 550.50727; 19801445.206728
2531.66; 559.26801; 19802014.517426
2532.68; 575.24745; 19802600.094503
2533.69; 596.68585; 19803207.49495
2534.71; 620.96009; 19803839.605526
2535.73; 645.28138; 19804496.474125
2536.75; 667.40898; 19805175.867662
2537.77; 686.15353; 19805874.342345
2538.78; 701.516; 19806588.455366
2539.80; 714.4316; 19807315.71591
2540.82; 726.22077; 19808054.97732
2541.84; 737.94659; 19808806.175108
2542.86; 749.90711; 19809569.548187
2543.87; 761.44308; 19810344.664383
2544.89; 771.13224; 19811129.643725
2545.91; 777.30719; 19811920.908905
2546.93; 778.71973; 19812713.611991
2547.95; 775.11855; 19813502.649224
2548.96; 767.52912; 19814283.960747
2549.98; 758.11871; 19815055.692876
2551.00; 749.66557; 19815818.820077
2552.02; 744.78612; 19816576.980204
2553.04; 745.16099; 19817335.521934
2554.05; 751.01103; 19818100.018755
2555.07; 761.00068; 19818874.684609
2556.09; 772.6119; 19819661.170182
2557.11; 782.87977; 19820458.108
2558.13; 789.26194; 19821261.542602
2559.14; 790.36905; 19822066.104188
2560.16; 786.32805; 19822866.552214
2561.18; 778.67176; 19823659.206468
2562.20; 769.80323; 19824442.832936
2563.22; 762.2215; 19825218.741534
2564.23; 757.76734; 19825990.115992
2565.25; 757.13021; 19826760.841873
2566.27; 759.75915; 19827534.243906
2567.29; 764.17666; 19828312.142775
2568.31; 768.55779; 19829094.501441
2569.32; 771.35535; 19829879.707903
2570.34; 771.75207; 19830665.318207
2571.36; 769.79824; 19831448.939599
2572.38; 766.21703; 19832228.915471
2573.39; 761.98131; 19833004.579563
2574.41; 757.84193; 19833776.02995
2575.43; 753.99215; 19834543.561418
2576.45; 749.9893; 19835307.018161
2577.47; 744.9506; 19836065.345729
2578.48; 737.93529; 19836816.532013
2579.50; 728.35986; 19837557.970925
2580.52; 716.28751; 19838287.120696
2581.54; 702.48562; 19839002.220745
2582.56; 688.23411; 19839702.813369
2583.57; 674.95707; 19840389.890544
2584.59; 663.81045; 19841065.620935
2585.61; 655.36801; 19841732.757291
2586.63; 649.50836; 19842393.92877
2587.65; 645.53205; 19843051.052545
2588.66; 642.4585; 19843705.047571
2589.68; 639.3926; 19844355.921645
2590.70; 635.83156; 19845003.170741
2591.72; 631.80613; 19845646.322119
2592.74; 627.80979; 19846285.40539
2593.75; 624.54357; 19846921.16379
2594.77; 622.56898; 19847554.91215
2595.79; 621.99621; 19848188.077448
2596.81; 622.32712; 19848821.579603
2597.83; 622.5242; 19849455.282375
2598.84; 621.30052; 19850087.739499
2599.86; 617.5475; 19850716.376204
2600.88; 610.76103; 19851338.104578
2601.90; 601.31517; 19851950.217478
2602.92; 590.47165; 19852551.292134
2603.93; 580.09505; 19853141.803865
2604.95; 572.14208; 19853724.219818
2605.97; 568.07531; 19854302.495974
2606.99; 568.38863; 19854881.091072
2608.01; 572.40578; 19855463.775451
2609.02; 578.43098; 19856052.593233
2610.04; 584.21728; 19856647.301213
2611.06; 587.61186; 19857245.464729
2612.08; 587.1767; 19857843.185275
2613.10; 582.58864; 19858436.235367
2614.11; 574.6957; 19859021.250788
2615.13; 565.22068; 19859596.621053
2616.15; 556.2181; 19860162.827072
2617.17; 549.46713; 19860722.160903
2618.19; 545.99472; 19861277.959965
2619.20; 545.8673; 19861833.629324
2620.22; 548.29074; 19862391.765642
2621.24; 551.95146; 19862953.628413
2622.26; 555.45798; 19863519.060664
2623.27; 557.7242; 19864086.799831
2624.29; 558.1768; 19864654.999731
2625.31; 556.74886; 19865221.746042
2626.33; 553.70732; 19865785.396197
2627.35; 549.42016; 19866344.682215
2628.36; 544.17899; 19866898.63294
2629.38; 538.15465; 19867446.451153
2630.40; 531.49531; 19867987.490444
2631.42; 524.50669; 19868521.415624
2632.44; 517.81287; 19869048.52678
2633.45; 512.39759; 19869570.125417
2634.47; 509.4713; 19870088.745213
2635.49; 510.17895; 19870608.085365
2636.51; 515.2321; 19871132.569409
2637.53; 524.58885; 19871666.578223
2638.54; 537.30143; 19872213.527899
2639.56; 551.60386; 19872775.036823
2640.58; 565.23662; 19873350.423315
2641.60; 575.92823; 19873936.693405
2642.62; 581.90042; 19874529.042922
2643.63; 582.25408; 19875121.752447
2644.65; 577.12909; 19875709.244955
2645.67; 567.60138; 19876287.038668
2646.69; 555.36084; 19876852.372041
2647.71; 542.27706; 19877404.38669
2648.72; 529.98572; 19877943.889285
2649.74; 519.60951; 19878472.829348
2650.76; 511.67243; 19878993.689802
2651.78; 506.19646; 19879508.975959
2652.80; 502.91086; 19880020.917516
2653.81; 501.47652; 19880531.398977
2654.83; 501.63972; 19881042.046565
2655.85; 503.27202; 19881554.355768
2656.87; 506.30749; 19882069.754945
2657.89; 510.63058; 19882589.554839
2658.90; 515.98229; 19883114.802545
2659.92; 521.93388; 19883646.108713
2660.94; 527.93836; 19884183.527184
2661.96; 533.42975; 19884726.535656
2662.98; 537.91847; 19885274.113447
2663.99; 541.03826; 19885824.867049
2665.01; 542.53156; 19886377.140761
2666.03; 542.19883; 19886929.075774
2667.05; 539.86264; 19887478.632642
2668.06; 535.39327; 19888023.639885
2669.08; 528.80988; 19888561.945529
2670.10; 520.42317; 19889091.713855
2671.12; 510.94722; 19889611.836075
2672.14; 501.50157; 19890122.343031
2673.15; 493.4571; 19890624.661062
2674.17; 488.14274; 19891121.569304
2675.19; 486.49626; 19891616.801503
2676.21; 488.78225; 19892114.360743
2677.23; 494.49148; 19892617.731726
2678.24; 502.47719; 19893129.231819
2679.26; 511.29637; 19893649.709457
2680.28; 519.64259; 19894178.683187
2681.30; 526.71698; 19894714.858339
2682.32; 532.40355; 19895256.822179
2683.33; 537.18864; 19895803.65703
2684.35; 541.86244; 19896355.249614
2685.37; 547.12379; 19896912.198028
2686.39; 553.2427; 19897475.375223
2687.41; 559.90675; 19898045.336135
2688.42; 566.29966; 19898621.804753
2689.44; 571.36715; 19899203.431853
2690.46; 574.15628; 19899787.898173
2691.48; 574.09658; 19900372.303718
2692.50; 571.12904; 19900953.688432
2693.51; 565.6625; 19901529.508445
2694.53; 558.41056; 19902097.946296
2695.55; 550.20356; 19902658.029773
2696.57; 541.86243; 19903209.622343
2697.59; 534.17165; 19903753.386032
2698.60; 527.92364; 19904290.789518
2699.62; 523.96061; 19904824.158807
2700.64; 523.13549; 19905356.688162
2701.66; 526.15532; 19905892.291576
2702.68; 533.3383; 19906435.206952
2703.69; 544.37767; 19906989.359925
2704.71; 558.2294; 19907557.613361
2705.73; 573.21115; 19908141.117579
2706.75; 587.32535; 19908738.989438
2707.77; 598.7284; 19909348.469111
2708.78; 606.19964; 19909965.554186
2709.80; 609.44716; 19910585.9451
2710.82; 609.13478; 19911206.018021
2711.84; 606.60893; 19911823.519735
2712.86; 603.41199; 19912437.7671
2713.87; 600.74819; 19913049.302833
2714.89; 599.08911; 19913659.149698
2715.91; 598.05844; 19914267.947387
2716.93; 596.63701; 19914875.298112
2717.94; 593.61465; 19915479.572206
2718.96; 588.1272; 19916078.260314
2719.98; 580.08629; 19916668.763126
2721.00; 570.34842; 19917249.353201
2722.02; 560.56252; 19917819.981654
2723.03; 552.749; 19918382.656287
2724.05; 548.75571; 19918941.265917
2725.07; 549.77485; 19919500.912986
2726.09; 556.07608; 19920066.974442
2727.11; 567.02625; 19920644.182697
2728.12; 581.35894; 19921235.981016
2729.14; 597.56877; 19921844.280236
2730.16; 614.26981; 19922469.580399
2731.18; 630.38988; 19923111.290097
2732.20; 645.15747; 19923768.032558
2733.21; 657.94155; 19924437.788666
2734.23; 668.07971; 19925117.864985
2735.25; 674.84198; 19925804.824998
2736.27; 677.61644; 19926494.609293
2737.29; 676.28913; 19927183.042439
2738.30; 671.67258; 19927866.776144
2739.32; 665.76921; 19928544.500468
2740.34; 661.67547; 19929218.05754
2741.36; 663.04582; 19929893.009573
2742.38; 673.20469; 19930578.302896
2743.39; 694.1561; 19931284.923848
2744.41; 725.82485; 19932023.78223
2745.43; 765.82551; 19932803.359554
2746.45; 809.89771; 19933627.800472
2747.47; 852.91974; 19934496.035964
2748.48; 890.19984; 19935402.220988
2749.50; 918.63097; 19936337.347673
2750.52; 937.33015; 19937291.509314
2751.54; 947.56128; 19938256.085803
2752.56; 951.99779; 19939225.17847
2753.57; 953.62145; 19940195.923952
2754.59; 954.68254; 19941167.749579
2755.61; 956.11302; 19942141.031376
2756.63; 957.5995; 19943115.826345
2757.65; 958.25832; 19944091.291961
2758.66; 957.61417; 19945066.101867
2759.68; 956.46052; 19946039.737398
2760.70; 957.22219; 19947014.148277
2761.72; 963.63092; 19947995.082973
2762.73; 979.78733; 19948992.464191
2763.75; 1008.9173; 19950019.498423
2764.77; 1052.2483; 19951090.641798
2765.79; 1108.3929; 19952218.937947
2766.81; 1173.4491; 19953413.458541
2767.82; 1241.7896; 19954677.546722
2768.84; 1307.2909; 19956008.312419
2769.86; 1364.6391; 19957397.456141
2770.88; 1410.3538; 19958833.135454
2771.90; 1443.2953; 19960302.347787
2772.91; 1464.5925; 19961793.239798
2773.93; 1477.0918; 19963296.855514
2774.95; 1484.5277; 19964808.040659
2775.97; 1490.6415; 19966325.449386
2776.99; 1498.4314; 19967850.787922
2778.00; 1509.6509; 19969387.54736
2779.02; 1524.6033; 19970939.527714
2780.04; 1542.2358; 19972509.457181
2781.06; 1560.502; 19974097.980915
2782.08; 1576.9372; 19975703.234987
2783.09; 1589.3499; 19977321.124568
2784.11; 1596.4922; 19978946.284778
2785.13; 1598.5424; 19980573.531955
2786.15; 1597.2393; 19982199.45267
2787.17; 1595.5815; 19983823.685778
2788.18; 1597.1164; 19985449.481309
2789.20; 1604.9862; 19987083.287984
2790.22; 1621.0001; 19988733.396097
2791.24; 1645.0278; 19990407.963381
2792.26; 1674.934; 19992112.973891
2793.27; 1707.1073; 19993850.735463
2794.29; 1737.4406; 19995619.375027
2795.31; 1762.4579; 19997413.481114
2796.33; 1780.2228; 19999225.67115
2797.35; 1790.7311; 20001048.558122
2798.36; 1795.6647; 20002876.467257
2799.38; 1797.609; 20004706.355654
2800.40; 1799.0205; 20006537.680866
2801.42; 1801.3156; 20008371.34246
2802.44; 1804.4027; 20010208.146596
2803.45; 1806.8101; 20012047.401264
2804.47; 1806.3484; 20013886.186001
2805.49; 1801.056; 20015719.583319
2806.51; 1790.0799; 20017541.807416
2807.52; 1774.1807; 20019347.84678
2808.54; 1755.6885; 20021135.061864
2809.56; 1737.9316; 20022904.201237
2810.58; 1724.3368; 20024659.501644
2811.60; 1717.4981; 20026407.840582
2812.61; 1718.5077; 20028157.207276
2813.63; 1726.7392; 20029914.953273
2814.65; 1740.1234; 20031686.323789
2815.67; 1755.8048; 20033473.657327
2816.69; 1770.9653; 20035276.423613
2817.70; 1783.5727; 20037092.023652
2818.72; 1792.8563; 20038917.074011
2819.74; 1799.4046; 20040748.790288
2820.76; 1804.8886; 20042586.088951
2821.78; 1811.51; 20044430.127924
2822.79; 1821.3354; 20046284.168804
2823.81; 1835.691; 20048152.823
2824.83; 1854.7692; 20050040.897978
2825.85; 1877.5419; 20051952.154628
2826.87; 1901.9942; 20053888.302694
2827.88; 1925.6141; 20055848.494782
2828.90; 1946.0068; 20057829.445778
2829.92; 1961.4686; 20059826.136213
2830.94; 1971.3646; 20061832.900286
2831.96; 1976.2111; 20063844.597872
2832.97; 1977.451; 20065857.557647
2833.99; 1977.0028; 20067870.061169
2835.01; 1976.7319; 20069882.288946
2836.03; 1978.0086; 20071895.816338
2837.05; 1981.472; 20073912.869281
2838.06; 1987.0322; 20075935.582285
2839.08; 1994.0464; 20077965.435445
2840.10; 2001.5398; 20080002.916542
2841.12; 2008.3431; 20082047.323118
2842.14; 2013.0836; 20084096.555345
2843.15; 2014.0721; 20086146.79381
2844.17; 2009.2237; 20088192.096844
2845.19; 1996.1857; 20090224.12772
2846.21; 1972.7887; 20092232.341538
2847.23; 1937.8041; 20094204.942489
2848.24; 1891.8185; 20096130.732111
2849.26; 1837.913; 20098001.648235
2850.28; 1781.8066; 20099815.450461
2851.30; 1731.2421; 20101577.780167
2852.32; 1694.6177; 20103302.82785
2853.33; 1679.1409; 20105012.120814
2854.35; 1688.9921; 20106731.441886
2855.37; 1724.057; 20108486.457515
2856.39; 1779.6666; 20110298.081345
2857.40; 1847.5063; 20112178.762996
2858.42; 1917.5003; 20114130.695577
2859.44; 1980.1717; 20116146.424873
2860.46; 2028.818; 20118211.674076
2861.48; 2060.9026; 20120309.583951
2862.49; 2078.3019; 20122425.205557
2863.51; 2086.4096; 20124549.0805
2864.53; 2092.4329; 20126679.086896
2865.55; 2103.4289; 20128820.286761
2866.57; 2124.6478; 20130983.086501
2867.58; 2158.5815; 20133180.429341
2868.60; 2204.8441; 20135424.865523
2869.62; 2260.7315; 20137726.192602
2870.64; 2322.1348; 20140090.025667
2871.66; 2384.4576; 20142517.300562
2872.67; 2443.2994; 20145004.473957
2873.69; 2494.8602; 20147544.133958
2874.71; 2536.1754; 20150125.85106
2875.73; 2565.3646; 20152737.281508
2876.75; 2582.0102; 20155365.656489
2877.76; 2587.6357; 20157999.757948
2878.78; 2586.0857; 20160632.281632
2879.80; 2583.5227; 20163262.196247
2880.82; 2587.7953; 20165896.460182
2881.84; 2607.1167; 20168550.392474
2882.85; 2648.2452; 20171246.191846
2883.87; 2714.6; 20174009.537519
2884.89; 2804.8646; 20176864.768695
2885.91; 2912.5759; 20179829.645322
2886.93; 3026.9621; 20182910.962094
2887.94; 3134.9528; 20186102.208805
2888.96; 3223.9394; 20189384.040027
2889.98; 3284.6237; 20192727.645168
2891.00; 3313.2432; 20196100.383723
2892.02; 3312.608; 20199472.475772
2893.03; 3291.6904; 20202823.274507
2894.05; 3263.8804; 20206145.763862
2895.07; 3244.3576; 20209448.379882
2896.09; 3247.2278; 20212753.917698
2897.11; 3283.1037; 20216095.975604
2898.12; 3357.6563; 20219513.924866
2899.14; 3471.3895; 20223047.649576
2900.16; 3620.5631; 20226733.22657
2901.18; 3798.9087; 20230600.351674
2902.19; 3999.6078; 20234671.779793
2903.21; 4216.9851; 20238964.48863
2904.23; 4447.5014; 20243491.853129
2905.25; 4689.8711; 20248265.939577
2906.27; 4944.4024; 20253299.127822
2907.28; 5211.8773; 20258604.594052
2908.30; 5492.3919; 20264195.611965
2909.32; 5784.5212; 20270084.004913
2910.34; 6085.0062; 20276278.278679
2911.36; 6388.9267; 20282781.93037
2912.37; 6690.1422; 20289592.206454
2913.39; 6981.7209; 20296699.297045
2914.41; 7256.1646; 20304085.759538
2915.43; 7505.4442; 20311725.977906
2916.45; 7721.0754; 20319585.699449
2917.46; 7894.5808; 20327622.04199
2918.48; 8018.6062; 20335784.637125
2919.50; 8088.6842; 20344018.568647
2920.52; 8105.2586; 20352269.37216
2921.54; 8075.2618; 20360489.64021
2922.55; 8012.4405; 20368645.958917
2923.57; 7935.8604; 20376724.3224
2924.59; 7866.5573; 20384732.138236
2925.61; 7822.9776; 20392695.591834
2926.63; 7816.414; 20400652.364015
2927.64; 7847.8431; 20408641.129611
2928.66; 7907.2869; 20416690.406511
2929.68; 7976.0938; 20424809.725786
2930.70; 8031.5931; 20432985.540985
2931.72; 8052.7735; 20441182.916909
2932.73; 8025.2571; 20449352.282376
2933.75; 7944.0775; 20457439.010482
2934.77; 7813.535; 20465392.851963
2935.79; 7644.4384; 20473174.560394
2936.81; 7449.9477; 20480758.285647
2937.82; 7241.6706; 20488129.993853
2938.84; 7027.4614; 20495283.646352
2939.86; 6811.6077; 20502217.569058
2940.88; 6597.077; 20508933.108797
2941.90; 6388.6296; 20515436.458099
2942.91; 6195.2334; 20521742.938398
2943.93; 6030.4881; 20527881.715024
2944.95; 5910.5648; 20533898.414889
2945.97; 5850.1785; 20539853.644182
2946.99; 5857.936; 20545816.770241
2948.00; 5932.7258; 20551856.029139
2949.02; 6062.5295; 20558027.422536
2950.04; 6226.2468; 20564365.47306
2951.06; 6398.1566; 20570878.52037
2952.07; 6553.8127; 20577550.018877
2953.09; 6675.7749; 20584345.669671
2954.11; 6757.6836; 20591224.699937
2955.13; 6805.7028; 20598152.611693
2956.15; 6837.0724; 20605112.456329
2957.16; 6876.1823; 20612112.113197
2958.18; 6949.0613; 20619185.95777
2959.20; 7077.4022; 20626390.447807
2960.22; 7273.2754; 20633794.328357
2961.24; 7535.5791; 20641465.222688
2962.25; 7849.068; 20649455.235213
2963.27; 8186.4792; 20657788.717799
2964.29; 8513.765; 20666455.363157
2965.31; 8797.7569; 20675411.100006
2966.33; 9014.8113; 20684587.788855
2967.34; 9158.3568; 20693910.600911
2968.36; 9243.0765; 20703319.653914
2969.38; 9303.9478; 20712790.671255
2970.40; 9389.5856; 20722348.864243
2971.42; 9551.0353; 20732071.40605
2972.43; 9828.8444; 20742076.745493
2973.45; 10242.266; 20752502.930052
2974.47; 10784.288; 20763480.870036
2975.49; 11424.686; 20775110.707182
2976.51; 12120.755; 20787449.11297
2977.52; 12832.654; 20800512.201131
2978.54; 13538.292; 20814293.598597
2979.56; 14242.425; 20828791.772944
2980.58; 14976.313; 20844037.012862
2981.60; 15787.632; 20860108.140782
2982.61; 16724.154; 20877132.607895
2983.63; 17817.521; 20895270.075328
2984.65; 19074.011; 20914686.595655
2985.67; 20476.904; 20935531.199811
2986.69; 22000.501; 20957926.759997
2987.70; 23630.671; 20981981.763125
2988.72; 25383.023; 21007820.585556
2989.74; 27309.402; 21035620.37844
2990.76; 29486.99; 21065636.861538
2991.78; 31991.069; 21098202.389672
2992.79; 34860.021; 21133688.386418
2993.81; 38066.326; 21172438.263554
2994.83; 41507.61; 21214691.21962
2995.85; 45026.073; 21260525.818539
2996.86; 48454.462; 21309850.369937
2997.88; 51675.5; 21362453.799356
2998.90; 54673.818; 21418109.38698
2999.92; 57558.779; 21476701.740713
3000.94; 60544.371; 21538333.297327
3001.95; 63886.713; 21603367.2143
3002.97; 67795.918; 21672380.533386
3003.99; 72350.829; 21746030.555583
3005.01; 77447.597; 21824868.866912
3006.03; 82804.058; 21909159.824599
3007.04; 88023.881; 21998764.337553
3008.06; 92703.385; 22093132.383649
3009.08; 96547.587; 22191413.660733
3010.10; 99456.806; 22292656.39764
3011.12; 101553.65; 22396033.63048
3012.13; 103139.91; 22501025.610169
3013.15; 104597.03; 22607500.874487
3014.17; 106263.35; 22715672.375278
3015.19; 108329.28; 22825946.910048
3016.21; 110784.66; 22938720.915125
3017.22; 113433.19; 23054191.003394
3018.24; 115965.03; 23172238.397082
3019.26; 118058.44; 23292416.791041
3020.28; 119472.75; 23414034.898563
3021.30; 120101.05; 23536292.58826
3022.31; 119968.07; 23658414.908571
3023.33; 119180.88; 23779735.905274
3024.35; 117857.41; 23899709.665388
3025.37; 116064.59; 24017858.413102
3026.39; 113791.82; 24133693.577714
3027.40; 110969.34; 24246655.576047
3028.42; 107522.26; 24356108.599189
3029.44; 103436.74; 24461402.737242
3030.46; 98810.45; 24561987.511115
3031.48; 93866.488; 24657539.545385
3032.49; 88924.149; 24748060.491469
3033.51; 84336.036; 24833910.936377
3034.53; 80412.267; 24915767.154424
3035.55; 77355.379; 24994511.592385
3036.57; 75223.875; 25071086.25125
3037.58; 73931.405; 25146345.231217
3038.60; 73277.048; 25220938.104148
3039.62; 72994.36; 25295243.212406
3040.64; 72804.683; 25369355.237887
3041.66; 72463.096; 25443119.542968
3042.67; 71790.719; 25516199.396551
3043.69; 70692.078; 25588160.881584
3044.71; 69159.05; 25658561.810556
3045.73; 67263.377; 25727033.025759
3046.74; 65139.274; 25793341.995443
3047.76; 62957.706; 25857430.223251
3048.78; 60895.372; 25919419.084078
3049.80; 59103.777; 25979584.178545
3050.82; 57685.45; 26038305.477207
3051.83; 56683.731; 26096007.069347
3052.85; 56089.021; 26153103.271985
3053.87; 55858.873; 26209965.194387
3054.89; 55944.102; 26266913.876502
3055.91; 56310.609; 26324235.646438
3056.92; 56948.413; 26382206.673705
3057.94; 57864.938; 26441110.683338
3058.96; 59066.623; 26501237.956332
3059.98; 60538.33; 26562863.364008
3061.00; 62231.113; 26626211.951853
3062.01; 64065.13; 26691427.489696
3063.03; 65947.372; 26758559.068545
3064.05; 67796.693; 26827573.176578
3065.07; 69564.766; 26898387.106291
3066.09; 71242.982; 26970909.388124
3067.10; 72851.522; 27045069.09402
3068.12; 74415.056; 27120820.409785
3069.14; 75936.113; 27198120.096045
3070.16; 77378.876; 27276888.452782
3071.18; 78672.141; 27356973.297155
3072.19; 79732.026; 27438137.058542
3073.21; 80496.28; 27520078.797771
3074.23; 80956.586; 27602489.108954
3075.25; 81175.52; 27685122.285042
3076.27; 81280.736; 27767862.567319
3077.28; 81437.965; 27850762.901142
3078.30; 81812.586; 27934044.583064
3079.32; 82533.541; 28018060.166091
3080.34; 83671.428; 28103234.069301
3081.36; 85235.992; 28190000.631207
3082.37; 87189.819; 28278756.104181
3083.39; 89468.685; 28369831.364312
3084.41; 91997.394; 28463480.741665
3085.43; 94693.614; 28559874.754204
3086.45; 97459.378; 28659084.195186
3087.46; 100167.23; 28761050.1163
3088.48; 102652.05; 28865545.468854
3089.50; 104718.36; 28972144.235541
3090.52; 106167.18; 29080217.838994
3091.53; 106837.62; 29188973.929375
3092.55; 106651.3; 29297540.355028
3093.57; 105644.03; 29405081.418287
3094.59; 103971.77; 29510920.189053
3095.61; 101885.1; 29614634.829036
3096.62; 99676.448; 29716101.151925
3097.64; 97613.135; 29815467.110768
3098.66; 95874.812; 29913063.53188
3099.68; 94512.774; 30009273.456929
3100.70; 93442.973; 30104394.371118
3101.71; 92474.874; 30198529.802331
3102.73; 91368.188; 30291538.6748
3103.75; 89901.801; 30383054.828816
3104.77; 87936.022; 30472569.904146
3105.79; 85451.396; 30559555.737863
3106.80; 82554.053; 30643592.201216
3107.82; 79446.84; 30724465.655611
3108.84; 76374.855; 30802211.962733
3109.86; 73560.797; 30877093.679318
3110.88; 71148.025; 30949519.298893
3111.89; 69166.808; 31019928.125145
3112.91; 67532.464; 31088673.259415
3113.93; 66075.104; 31155934.864234
3114.95; 64591.806; 31221686.535574
3115.97; 62905.928; 31285722.055392
3116.98; 60916.639; 31347732.565293
3118.00; 58625.033; 31407410.319308
3119.02; 56130.369; 31464548.613114
3120.04; 53598.895; 31519109.975589
3121.06; 51215.563; 31571245.208323
3122.07; 49133.432; 31621260.921941
3123.09; 47435.399; 31669548.110849
3124.11; 46118.288; 31716494.538183
3125.13; 45102.012; 31762406.440149
3126.15; 44258.786; 31807459.974036
3127.16; 43451.852; 31851692.084006
3128.18; 42571.318; 31895027.849047
3129.20; 41556.938; 31937331.018985
3130.22; 40402.855; 31978459.382017
3131.24; 39145.583; 32018307.896621
3132.25; 37841.628; 32056829.040944
3133.27; 36543.604; 32094028.853359
3134.29; 35282.964; 32129945.388208
3135.31; 34064.071; 32164621.142491
3136.33; 32869.854; 32198081.235816
3137.34; 31675.25; 32230325.273219
3138.36; 30462.469; 32261334.75192
3139.38; 29232.311; 32291091.983057
3140.40; 28007.889; 32319602.805349
3141.41; 26830.249; 32346914.84095
3142.43; 25748.201; 32373125.39863
3143.45; 24806.258; 32398377.098886
3144.47; 24034.554; 32422843.237887
3145.49; 23443.27; 32446707.474937
3146.50; 23022.154; 32470143.033764
3147.52; 22744.078; 32493295.524083
3148.54; 22570.762; 32516271.585636
3149.56; 22458.942; 32539133.819263
3150.58; 22366.095; 32561901.538719
3151.59; 22255.619; 32584556.798266
3152.61; 22101.766; 32607055.442451
3153.63; 21894.309; 32629342.904259
3154.65; 21642.157; 32651373.686396
3155.67; 21374.459; 32673131.962996
3156.68; 21137.629; 32694649.156809
3157.70; 20987.563; 32716013.590628
3158.72; 20977.846; 32737368.132921
3159.74; 21146.469; 32758894.326061
3160.76; 21504.717; 32780785.199747
3161.77; 22031.792; 32803212.612841
3162.79; 22677.326; 32826297.152572
3163.81; 23371.55; 32850088.382172
3164.83; 24040.387; 32874560.459162
3165.85; 24621.137; 32899623.714519
3166.86; 25074.273; 32925148.242919
3167.88; 25388.416; 32950992.554916
3168.90; 25578.108; 32977029.965444
3169.92; 25676.662; 33003167.699071
3170.94; 25727.972; 33029357.664757
3171.95; 25781.171; 33055601.784401
3172.97; 25890.238; 33081956.929969
3173.99; 26117.978; 33108543.904871
3175.01; 26541.108; 33135561.607718
3176.03; 27251.835; 33163302.799588
3177.04; 28351.814; 33192163.722743
3178.06; 29936.831; 33222638.124385
3179.08; 32074.109; 33255288.182862
3180.10; 34777.635; 33290690.314117
3181.12; 37988.968; 33329361.44456
3182.13; 41570.843; 33371678.769326
3183.15; 45318.257; 33417810.799566
3184.17; 48987.337; 33467677.794768
3185.19; 52337.264; 33520954.871221
3186.20; 55176.382; 33577122.047003
3187.22; 57401.578; 33635554.376022
3188.24; 59020.794; 33695634.997225
3189.26; 60152.04; 33756867.17826
3190.28; 60997.74; 33818960.245374
3191.29; 61799.307; 33881869.273072
3192.31; 62781.957; 33945778.596113
3193.33; 64102.588; 34011032.264151
3194.35; 65813.259; 34078027.322123
3195.37; 67849.374; 34147095.057225
3196.38; 70045.81; 34218398.669598
3197.40; 72177.441; 34291872.190129
3198.42; 74014.363; 34367215.618016
3199.44; 75378.352; 34443947.527352
3200.46; 76186.594; 34521502.192375
3201.47; 76471.809; 34599347.193825
3202.49; 76373.713; 34677092.338272
3203.51; 76103.964; 34754562.889488
3204.53; 75893.353; 34831819.047821
3205.55; 75934.463; 34909117.054131
3206.56; 76334.056; 34986821.829648
3207.58; 77086.96; 35065293.028928
3208.60; 78077.745; 35144772.803978
3209.62; 79109.544; 35225302.905925
3210.64; 79952.623; 35306691.226319
3211.65; 80400.471; 35388535.436126
3212.67; 80319.42; 35470297.139788
3213.69; 79679.534; 35551407.467048
3214.71; 78559.241; 35631377.384563
3215.73; 77122.881; 35709885.149538
3216.74; 75577.234; 35786819.512743
3217.76; 74118.553; 35862269.001195
3218.78; 72884.128; 35936461.898892
3219.80; 71921.265; 36009674.643541
3220.82; 71181.829; 36082134.673787
3221.83; 70543.437; 36153944.848254
3222.85; 69850.744; 36225049.891869
3223.87; 68964.339; 36295252.6132
3224.89; 67802.359; 36364272.489192
3225.91; 66362.048; 36431826.190631
3226.92; 64714.612; 36497702.873506
3227.94; 62975.249; 36561808.959792
3228.96; 61258.39; 36624167.357283
3229.98; 59633.343; 36684871.52723
3231.00; 58095.751; 36744010.494584
3232.01; 56565.261; 36801591.489684
3233.03; 54911.09; 36857488.609398
3234.05; 52997.536; 36911437.813999
3235.07; 50734.389; 36963083.232818
3236.08; 48115.04; 37012062.26757
3237.10; 45228.949; 37058103.38606
3238.12; 42243.64; 37101105.588196
3239.14; 39361.714; 37141174.11408
3240.16; 36766.841; 37178601.171882
3241.17; 34576.3; 37213798.353488
3242.19; 32815.139; 37247202.748825
3243.21; 31419.358; 37279186.299091
3244.23; 30265.472; 37309995.243481
3245.25; 29215.051; 37339734.905196
3246.26; 28158.423; 37368398.964869
3247.28; 27043.078; 37395927.650844
3248.30; 25878.689; 37422271.039794
3249.32; 24719.482; 37447434.405603
3250.34; 23632.604; 37471491.376186
3251.35; 22665.396; 37494563.771614
3252.37; 21823.657; 37516779.312789
3253.39; 21067.872; 37538225.496903
3254.41; 20327.193; 37558917.702612
3255.43; 19524.487; 37578792.787923
3256.44; 18602.395; 37597729.223017
3257.46; 17541.07; 37615585.27564
3258.48; 16362.278; 37632241.368619
3259.50; 15120.081; 37647632.958199
3260.52; 13883.083; 37661765.337377
3261.53; 12715.448; 37674709.114857
3262.55; 11663.133; 37686581.680577
3263.57; 10748.707; 37697523.400256
3264.59; 9974.3038; 37707676.811111
3265.61; 9329.2808; 37717173.616412
3266.62; 8798.1669; 37726129.770666
3267.64; 8365.5029; 37734645.491605
3268.66; 8016.4867; 37742805.929091
3269.68; 7734.7121; 37750679.532209
3270.70; 7499.6531; 37758313.855425
3271.71; 7286.4039; 37765731.100127
3272.73; 7068.7754; 37772926.808453
3273.75; 6824.9553; 37779874.318476
3274.77; 6543.484; 37786535.302774
3275.79; 6226.9341; 37792874.052941
3276.80; 5891.5128; 37798871.358706
3277.82; 5562.4072; 37804533.649206
3278.84; 5266.3504; 37809894.566652
3279.86; 5023.9021; 37815008.682209
3280.87; 4843.9581; 37819939.622512
3281.89; 4722.0921; 37824746.508531
3282.91; 4642.9288; 37829472.809692
3283.93; 4585.4096; 37834140.558843
3284.95; 4529.0225; 37838750.908341
3285.96; 4459.0116; 37843289.989779
3286.98; 4369.1799; 37847737.626406
3288.00; 4261.8289; 37852075.984324
3289.02; 4145.2943; 37856295.715017
3290.04; 4030.1512; 37860398.234982
3291.05; 3925.3624; 37864394.084518
3292.07; 3835.4616; 37868298.418908
3293.09; 3759.4296; 37872125.356025
3294.11; 3691.3968; 37875883.038705
3295.13; 3622.8142; 37879570.907275
3296.14; 3545.3802; 37883179.951374
3297.16; 3453.842; 37886695.813479
3298.18; 3347.8423; 37890103.772482
3299.20; 3232.2504; 37893394.063877
3300.22; 3115.848; 37896565.862645
3301.23; 3008.7385; 37899628.628628
3302.25; 2919.2595; 37902600.308876
3303.27; 2851.3687; 37905502.879203
3304.29; 2803.3557; 37908356.57431
3305.31; 2768.3209; 37911174.605565
3306.32; 2736.2889; 37913960.029592
3307.34; 2697.277; 37916705.741208
3308.36; 2644.3264; 37919397.551411
3309.38; 2575.524; 37922019.323692
3310.40; 2494.4022; 37924558.517466
3311.41; 2408.6581; 37927010.427477
3312.43; 2327.6817; 37929379.906965
3313.45; 2259.7343; 37931680.218993
3314.47; 2209.6655; 37933929.563085
3315.49; 2177.8031; 37936146.472691
3316.50; 2160.2263; 37938345.489801
3317.52; 2150.1815; 37940534.281831
3318.54; 2140.0986; 37942712.809854
3319.56; 2123.562; 37944874.50437
3320.58; 2096.7121; 37947008.866849
3321.59; 2058.7914; 37949104.627667
3322.61; 2011.8322; 37951152.586083
3323.63; 1959.7028; 37953147.479004
3324.65; 1906.8483; 37955088.568332
3325.67; 1857.0782; 37956978.993771
3326.68; 1812.6831; 37958824.226976
3327.70; 1774.0533; 37960630.136719
3328.72; 1739.8376; 37962401.21635
3329.74; 1707.5603; 37964139.439036
3330.75; 1674.5078; 37965844.015675
3331.77; 1638.6352; 37967512.075619
3332.79; 1599.2375; 37969140.030384
3333.81; 1557.191; 37970725.183631
3334.83; 1514.6946; 37972267.077368
3335.84; 1474.5878; 37973768.144097
3336.86; 1439.4582; 37975233.450451
3337.88; 1410.8206; 37976669.60492
3338.90; 1388.6272; 37978083.16744
3339.92; 1371.2618; 37979479.052795
3340.93; 1356.0087; 37980859.411093
3341.95; 1339.8325; 37982223.302758
3342.97; 1320.2137; 37983567.223375
3343.99; 1295.7767; 37984886.268138
3345.01; 1266.535; 37986175.546126
3346.02; 1233.7156; 37987431.415383
3347.04; 1199.262; 37988652.212389
3348.06; 1165.2107; 37989838.346623
3349.08; 1133.1527; 37990991.847221
3350.10; 1103.9395; 37992115.610006
3351.11; 1077.6895; 37993212.651368
3352.13; 1054.044; 37994285.622709
3353.15; 1032.5412; 37995336.70512
3354.17; 1012.9482; 37996367.842711
3355.19; 995.42488; 37997381.14228
3356.20; 980.46138; 37998379.209654
3357.22; 968.62144; 37999365.22448
3358.24; 960.19408; 38000342.660624
3359.26; 954.89196; 38001314.699436
3360.28; 951.71888; 38002283.508183
3361.29; 949.07079; 38003249.621297
3362.31; 945.05234; 38004211.643802
3363.33; 937.91347; 38005166.399244
3364.35; 926.46623; 38006109.501884
3365.37; 910.34661; 38007036.195452
3366.38; 890.04065; 38007942.218429
3367.40; 866.678; 38008824.459233
3368.42; 841.67925; 38009681.252387
3369.44; 816.39217; 38010512.304386
3370.46; 791.8477; 38011318.371177
3371.47; 768.70975; 38012100.88453
3372.49; 747.40653; 38012861.712129
3373.51; 728.35106; 38013603.142078
3374.53; 712.11829; 38014328.047767
3375.54; 699.46487; 38015040.072824
3376.56; 691.14746; 38015743.631113
3377.58; 687.58924; 38016443.567292
3378.60; 688.52255; 38017144.45354
3379.62; 692.76432; 38017849.657723
3380.63; 698.24743; 38018560.443474
3381.65; 702.34553; 38019275.400918
3382.67; 702.42406; 38019990.438296
3383.69; 696.46538; 38020699.410004
3384.71; 683.58314; 38021395.268143
3385.72; 664.2703; 38022071.466645
3386.74; 640.30686; 38022723.271398
3387.76; 614.35507; 38023348.658351
3388.78; 589.35911; 38023948.60049
3389.80; 567.91348; 38024526.711908
3390.81; 551.75993; 38025088.379711
3391.83; 541.5224; 38025639.626142
3392.85; 536.71515; 38026185.979003
3393.87; 535.98517; 38026731.588782
3394.89; 537.49723; 38027278.737769
3395.90; 539.35033; 38027827.773132
3396.92; 539.92658; 38028377.395095
3397.94; 538.10873; 38028925.166562
3398.96; 533.34743; 38029468.09123
3399.98; 525.60022; 38030003.129577
3400.99; 515.19146; 38030527.572256
3402.01; 502.65154; 38031039.249832
3403.03; 488.58521; 38031536.608488
3404.05; 473.59721; 38032018.710008
3405.07; 458.27628; 38032485.215481
3406.08; 443.21452; 38032936.388739
3407.10; 429.02564; 38033373.118323
3408.12; 416.32664; 38033796.920879
3409.14; 405.66427; 38034209.869599
3410.16; 397.39289; 38034614.398415
3411.17; 391.53796; 38035012.967158
3412.19; 387.69618; 38035407.62514
3413.21; 385.0241; 38035799.563059
3414.23; 382.34662; 38036188.77542
3415.25; 378.38192; 38036573.951885
3416.26; 372.03842; 38036952.670938
3417.28; 362.70776; 38037321.891788
3418.30; 350.46681; 38037678.651878
3419.32; 336.1183; 38038020.805804
3420.34; 321.0416; 38038347.612298
3421.35; 306.88034; 38038660.00324
3422.37; 295.14567; 38038960.448798
3423.39; 286.84464; 38039252.444266
3424.41; 282.2409; 38039539.753321
3425.42; 280.81836; 38039825.61429
3426.44; 281.45762; 38040112.126
3427.46; 282.76951; 38040399.973162
3428.48; 283.48162; 38040688.545214
3429.50; 282.75908; 38040976.38176
3430.51; 280.36584; 38041261.782084
3431.53; 276.62762; 38041543.377068
3432.55; 272.22535; 38041820.490728
3433.57; 267.90174; 38042093.203137
3434.59; 264.18764; 38042362.134753
3435.60; 261.23944; 38042628.065231
3436.62; 258.83258; 38042891.54563
3437.64; 256.49717; 38043152.648677
3438.66; 253.73217; 38043410.937074
3439.68; 250.21251; 38043665.642612
3440.69; 245.91436; 38043915.972814
3441.71; 241.12131; 38044161.423904
3442.73; 236.32126; 38044401.988748
3443.75; 232.04146; 38044638.196942
3444.77; 228.6852; 38044870.988611
3445.78; 226.42354; 38045101.478
3446.80; 225.16815; 38045330.689462
3447.82; 224.61953; 38045559.342455
3448.84; 224.36126; 38045787.732538
3449.86; 223.96411; 38046015.718341
3450.87; 223.0713; 38046242.795294
3451.89; 221.45159; 38046468.22346
3452.91; 219.02156; 38046691.177957
3453.93; 215.84456; 38046910.898404
3454.95; 212.11307; 38047126.820354
3455.96; 208.11535; 38047338.672803
3456.98; 204.18441; 38047546.523721
3458.00; 200.63006; 38047750.75646
3459.02; 197.66378; 38047951.969662
3460.04; 195.33543; 38048150.812697
3461.05; 193.50469; 38048347.792119
3462.07; 191.86447; 38048543.101867
3463.09; 190.01745; 38048736.531436
3464.11; 187.58789; 38048927.487817
3465.13; 184.3352; 38049115.133095
3466.14; 180.23224; 38049298.601737
3467.16; 175.4813; 38049477.23413
3468.18; 170.46151; 38049650.756596
3469.20; 165.62511; 38049819.355809
3470.21; 161.37715; 38049983.630785
3471.23; 157.97764; 38050144.445207
3472.25; 155.49524; 38050302.732651
3473.27; 153.82231; 38050459.317127
3474.29; 152.73946; 38050614.799303
3475.30; 152.00214; 38050769.530923
3476.32; 151.4175; 38050923.667403
3477.34; 150.88649; 38051077.263344
3478.36; 150.40158; 38051230.365662
3479.38; 150.0068; 38051383.066111
3480.39; 149.73992; 38051535.494887
3481.41; 149.58079; 38051687.76168
3482.43; 149.42618; 38051839.871081
3483.45; 149.1007; 38051991.64916
3484.47; 148.40076; 38052142.714726
3485.48; 147.15678; 38052292.513978
3486.50; 145.29319; 38052440.416171
3487.52; 142.86571; 38052585.847294
3488.54; 140.06261; 38052728.424989
3489.56; 137.16728; 38052868.055363
3490.57; 134.49156; 38053004.961963
3491.59; 132.29867; 38053139.636305
3492.61; 130.73843; 38053272.722383
3493.63; 129.81397; 38053404.867399
3494.65; 129.39034; 38053536.581187
3495.66; 129.24198; 38053668.143949
3496.68; 129.12401; 38053799.58662
3497.70; 128.8449; 38053930.745168
3498.72; 128.31772; 38054061.367068
3499.74; 127.57468; 38054191.232585
3500.75; 126.74213; 38054320.250607
3501.77; 125.98632; 38054448.499248
3502.79; 125.44946; 38054576.201388
3503.81; 125.19807; 38054703.647618
3504.83; 125.20011; 38054831.095932
3505.84; 125.33692; 38054958.683506
3506.86; 125.44352; 38055086.379594
3507.88; 125.36229; 38055213.992993
3508.90; 124.99131; 38055341.228753
3509.92; 124.31259; 38055467.773601
3510.93; 123.39341; 38055593.382771
3511.95; 122.36395; 38055717.943991
3512.97; 121.3814; 38055841.505016
3513.99; 120.59387; 38055964.264371
3515.00; 120.11456; 38056086.535806
3516.02; 120.01072; 38056208.701538
3517.04; 120.30517; 38056331.167006
3518.06; 120.98333; 38056454.322818
3519.08; 121.99821; 38056578.511733
3520.09; 123.26881; 38056703.994062
3521.11; 124.67315; 38056830.905952
3522.13; 126.04208; 38056959.211352
3523.15; 127.16229; 38057088.657072
3524.17; 127.79511; 38057218.746981
3525.18; 127.71207; 38057348.752353
3526.20; 126.74084; 38057477.769054
3527.22; 124.80975; 38057604.819994
3528.24; 121.97666; 38057728.986974
3529.26; 118.4313; 38057849.544928
3530.27; 114.46732; 38057966.067716
3531.29; 110.42945; 38058078.480133
3532.31; 106.64884; 38058187.044051
3533.33; 103.38309; 38058292.283579
3534.35; 100.7761; 38058394.869296
3535.36; 98.846136; 38058495.490397
3536.38; 97.502354; 38058594.743585
3537.40; 96.581795; 38058693.059685
3538.42; 95.89477; 38058790.676422
3539.44; 95.266159; 38058887.653261
3540.45; 94.564047; 38058983.91538
3541.47; 93.71267; 38059079.310834
3542.49; 92.69189; 38059173.667179
3543.51; 91.528363; 38059266.839103
3544.53; 90.283657; 38059358.74397
3545.54; 89.042462; 38059449.385354
3546.56; 87.901225; 38059538.865008
3547.58; 86.955582; 38059627.382038
3548.60; 86.284953; 38059715.216397
3549.62; 85.934403; 38059802.693911
3550.63; 85.896694; 38059890.133039
3551.65; 86.09975; 38059977.77887
3552.67; 86.405402; 38060065.73584
3553.69; 86.623632; 38060153.914959
3554.71; 86.542824; 38060242.01182
3555.72; 85.971742; 38060329.527344
3556.74; 84.784674; 38060415.834483
3557.76; 82.958708; 38060500.282868
3558.78; 80.59252; 38060582.322575
3559.80; 77.899506; 38060661.62091
3560.81; 75.173977; 38060738.144775
3561.83; 72.73598; 38060812.186864
3562.85; 70.866344; 38060884.325744
3563.87; 69.747005; 38060955.325186
3564.88; 69.421312; 38061025.993086
3565.90; 69.784711; 38061097.03091
3566.92; 70.608865; 38061168.907688
3567.94; 71.593786; 38061241.787072
3568.96; 72.435262; 38061315.523043
3569.97; 72.890949; 38061389.722884
3570.99; 72.828981; 38061463.859644
3572.01; 72.247882; 38061537.40487
3573.03; 71.264378; 38061609.948932
3574.05; 70.074194; 38061681.281438
3575.06; 68.897652; 38061751.416275
3576.08; 67.925062; 38061820.561056
3577.10; 67.275777; 38061889.044894
3578.12; 66.980076; 38061957.227721
3579.14; 66.986129; 38062025.41671
3580.15; 67.187432; 38062093.810616
3581.17; 67.461028; 38062162.483032
3582.19; 67.704804; 38062231.4036
3583.21; 67.86351; 38062300.485725
3584.23; 67.937187; 38062369.64285
3585.24; 67.97111; 38062438.834507
3586.26; 68.031641; 38062508.087781
3587.28; 68.176031; 38062577.488039
3588.30; 68.425446; 38062647.14219
3589.32; 68.749044; 38062717.125751
3590.33; 69.063507; 38062787.429421
3591.35; 69.248061; 38062857.920958
3592.37; 69.170965; 38062928.334016
3593.39; 68.720879; 38062998.288906
3594.41; 67.835741; 38063067.342763
3595.42; 66.522935; 38063135.06024
3596.44; 64.866778; 38063201.09182
3597.46; 63.022011; 38063265.245508
3598.48; 61.194387; 38063327.538753
3599.50; 59.611229; 38063388.220412
3600.51; 58.486135; 38063447.756774
3601.53; 57.982903; 38063506.780867
3602.55; 58.184487; 38063566.010164
3603.57; 59.072966; 38063626.143894
3604.59; 60.525793; 38063687.756539
3605.60; 62.331384; 38063751.207199
3606.62; 64.223468; 38063816.583918
3607.64; 65.929026; 38063883.696822
3608.66; 67.220418; 38063952.124306
3609.67; 67.959843; 38064021.304494
3610.69; 68.124945; 38064090.652748
3611.71; 67.808278; 38064159.67865
3612.73; 67.18991; 38064228.075079
3613.75; 66.489633; 38064295.758656
3614.76; 65.911; 38064362.85321
3615.78; 65.591797; 38064429.622829
3616.80; 65.573771; 38064496.374098
3617.82; 65.799001; 38064563.354642
3618.84; 66.132815; 38064630.674994
3619.85; 66.405917; 38064698.273352
3620.87; 66.463455; 38064765.930281
3621.89; 66.2074; 38064833.326557
3622.91; 65.621103; 38064900.126008
3623.93; 64.770238; 38064966.059315
3624.94; 63.781068; 38065030.98569
3625.96; 62.80307; 38065094.916505
3626.98; 61.966972; 38065157.996208
3628.00; 61.350085; 38065220.447947
3629.02; 60.958421; 38065282.500989
3630.03; 60.730122; 38065344.321633
3631.05; 60.558629; 38065405.967704
3632.07; 60.328466; 38065467.379478
3633.09; 59.953154; 38065528.409202
3634.11; 59.404457; 38065588.880375
3635.12; 58.725071; 38065648.659963
3636.14; 58.021897; 38065707.723751
3637.16; 57.442612; 38065766.197851
3638.18; 57.14252; 38065824.366471
3639.20; 57.250439; 38065882.644946
3640.21; 57.84129; 38065941.524883
3641.23; 58.919985; 38066001.502885
3642.25; 60.41757; 38066063.005364
3643.27; 62.197861; 38066126.320102
3644.29; 64.071853; 38066191.542484
3645.30; 65.817756; 38066258.54212
3646.32; 67.205678; 38066326.9546
3647.34; 68.026403; 38066396.202543
3648.36; 68.122653; 38066465.548464
3649.38; 67.418867; 38066534.177962
3650.39; 65.943065; 38066601.305157
3651.41; 63.833467; 38066666.284872
3652.43; 61.324337; 38066728.710401
3653.45; 58.7103; 38066788.474952
3654.47; 56.294659; 38066845.780485
3655.48; 54.332937; 38066901.089071
3656.50; 52.985536; 38066955.02606
3657.52; 52.291756; 38067008.256812
3658.54; 52.171708; 38067061.365359
3659.55; 52.454658; 38067114.761937
3660.57; 52.924988; 38067168.637291
3661.59; 53.372594; 38067222.968288
3662.61; 53.634698; 38067277.566097
3663.63; 53.620149; 38067332.149095
3664.64; 53.313631; 38067386.420071
3665.66; 52.763224; 38067440.130756
3666.68; 52.058419; 38067493.12398
3667.70; 51.306164; 38067545.351442
3668.72; 50.610316; 38067596.870559
3669.73; 50.056624; 38067647.826042
3670.75; 49.702727; 38067698.421274
3671.77; 49.57172; 38067748.883146
3672.79; 49.648687; 38067799.423366
3673.81; 49.881157; 38067850.200232
3674.82; 50.185505; 38067901.28691
3675.84; 50.460726; 38067952.653751
3676.86; 50.608846; 38068004.171373
3677.88; 50.558135; 38068055.637372
3678.90; 50.28288; 38068106.823174
3679.91; 49.813041; 38068157.530701
3680.93; 49.229258; 38068207.643961
3681.95; 48.64299; 38068257.160425
3682.97; 48.166617; 38068306.191963
3683.99; 47.882161; 38068354.933937
3685.00; 47.818491; 38068403.611098
3686.02; 47.944683; 38068452.416716
3687.04; 48.182223; 38068501.46414
3688.06; 48.432644; 38068550.766482
3689.08; 48.611911; 38068600.25131
3690.09; 48.680387; 38068649.805843
3691.11; 48.658345; 38068699.337938
3692.13; 48.621484; 38068748.832511
3693.15; 48.677305; 38068798.383907
3694.17; 48.929436; 38068848.191962
3695.18; 49.441019; 38068898.520786
3696.20; 50.208718; 38068949.631094
3697.22; 51.155728; 38069001.705418
3698.24; 52.146295; 38069054.788096
3699.26; 53.017626; 38069108.757751
3700.27; 53.619874; 38069163.340469
3701.29; 53.852567; 38069218.160059
3702.31; 53.687266; 38069272.811379
3703.33; 53.170645; 38069326.936801
3704.34; 52.408156; 38069380.286043
3705.36; 51.534032; 38069432.745463
3706.38; 50.676805; 38069484.332264
3707.40; 49.930028; 38069535.158878
3708.42; 49.335376; 38069585.380161
3709.43; 48.881094; 38069635.139006
3710.45; 48.514136; 38069684.524302
3711.47; 48.160922; 38069733.550042
3712.49; 47.750236; 38069782.157722
3713.51; 47.232424; 38069830.238292
3714.52; 46.591157; 38069877.666079
3715.54; 45.846579; 38069924.335918
3716.56; 45.050672; 38069970.195559
3717.58; 44.276813; 38070015.267443
3718.60; 43.605707; 38070059.656172
3719.61; 43.109726; 38070103.540013
3720.63; 42.837578; 38070147.146819
3721.65; 42.801549; 38070190.716949
3722.67; 42.969947; 38070234.458501
3723.69; 43.267462; 38070278.50291
3724.70; 43.585187; 38070322.87075
3725.72; 43.800001; 38070367.457261
3726.74; 43.800117; 38070412.04389
3727.76; 43.510913; 38070456.336123
3728.78; 42.913883; 38070500.020604
3729.79; 42.052494; 38070542.828228
3730.81; 41.022151; 38070584.587008
3731.83; 39.946292; 38070625.25061
3732.85; 38.945409; 38070664.895355
3733.87; 38.108463; 38070703.688126
3734.88; 37.475695; 38070741.836766
3735.90; 37.037962; 38070779.539813
3736.92; 36.751887; 38070816.951649
3737.94; 36.56434; 38070854.172569
3738.96; 36.436406; 38070891.263258
3739.97; 36.357462; 38070928.273585
3740.99; 36.344152; 38070965.270364
3742.01; 36.425342; 38071002.34979
3743.03; 36.62006; 38071039.627431
3744.05; 36.918418; 38071077.208787
3745.06; 37.274408; 38071115.152527
3746.08; 37.614532; 38071153.442497
3747.10; 37.859572; 38071191.981907
3748.12; 37.951133; 38071230.614523
3749.14; 37.872322; 38071269.166912
3750.15; 37.654065; 38071307.497126
3751.17; 37.364286; 38071345.532356
3752.19; 37.084022; 38071383.28229
3753.21; 36.879817; 38071420.824353
3754.22; 36.783049; 38071458.26791
3755.24; 36.783827; 38071495.712258
3756.26; 36.840938; 38071533.214743
3757.28; 36.902687; 38071570.780086
3758.30; 36.929147; 38071608.372364
3759.31; 36.906158; 38071645.941241
3760.33; 36.845331; 38071683.448197
3761.35; 36.770712; 38071720.879196
3762.37; 36.698775; 38071758.236965
3763.39; 36.62151; 38071795.516082
3764.40; 36.501226; 38071832.672755
3765.42; 36.280694; 38071869.604936
3766.44; 35.905639; 38071906.155327
3767.46; 35.351024; 38071942.141145
3768.48; 34.640503; 38071977.403682
3769.49; 33.850664; 38072011.862198
3770.51; 33.097385; 38072045.553908
3771.53; 32.5084; 38072078.646056
3772.55; 32.191302; 38072111.415412
3773.57; 32.207674; 38072144.201435
3774.58; 32.561313; 38072177.347447
3775.60; 33.202942; 38072211.146609
3776.62; 34.047686; 38072245.805684
3777.64; 34.997552; 38072281.431681
3778.66; 35.960662; 38072318.038084
3779.67; 36.862008; 38072355.562017
3780.69; 37.64544; 38072393.88345
3781.71; 38.270976; 38072432.841652
3782.73; 38.713276; 38072472.250096
3783.75; 38.965398; 38072511.915191
3784.76; 39.047684; 38072551.664048
3785.78; 39.016854; 38072591.381521
3786.80; 38.967889; 38072631.049151
3787.82; 39.022454; 38072670.772325
3788.84; 39.3026; 38072710.780676
3789.85; 39.895304; 38072751.392374
3790.87; 40.819059; 38072792.944415
3791.89; 42.005491; 38072835.704192
3792.91; 43.305448; 38072879.787269
3793.93; 44.521114; 38072925.107842
3794.94; 45.456278; 38072971.380372
3795.96; 45.969625; 38073018.175467
3796.98; 46.013908; 38073065.01564
3798.00; 45.648091; 38073111.483427
3799.01; 45.018685; 38073157.310505
3800.03; 44.316998; 38073202.423297
3801.05; 43.726963; 38073246.935459
3802.07; 43.380613; 38073291.09505
3803.09; 43.3344; 38073335.207599
3804.10; 43.571218; 38073379.561219
3805.12; 44.02359; 38073424.375335
3806.14; 44.606722; 38073469.783052
3807.16; 45.248345; 38073515.843915
3808.18; 45.90561; 38073562.573844
3809.19; 46.565862; 38073609.975883
3810.21; 47.234893; 38073658.058966
3811.23; 47.920436; 38073706.839902
3812.25; 48.618992; 38073756.331938
3813.27; 49.310947; 38073806.528354
3814.28; 49.964385; 38073857.389942
3815.30; 50.544219; 38073908.841776
3816.32; 51.021831; 38073960.779799
3817.34; 51.381533; 38074013.083982
3818.36; 51.622783; 38074065.633747
3819.37; 51.759498; 38074118.322682
3820.39; 51.818739; 38074171.071922
3821.41; 51.84013; 38074223.842937
3822.43; 51.875399; 38074276.649855
3823.45; 51.985773; 38074329.569129
3824.46; 52.234778; 38074382.741879
3825.48; 52.675736; 38074436.363506
3826.50; 53.336099; 38074490.657353
3827.52; 54.20343; 38074545.834106
3828.54; 55.218849; 38074602.044512
3829.55; 56.28235; 38074659.337515
3830.57; 57.270953; 38074717.636874
3831.59; 58.066329; 38074776.745891
3832.61; 58.584951; 38074836.382844
3833.63; 58.802364; 38074896.241113
3834.64; 58.764254; 38074956.060588
3835.66; 58.580357; 38075015.692864
3836.68; 58.401738; 38075075.143313
3837.70; 58.386379; 38075134.578127
3838.72; 58.661142; 38075194.292638
3839.73; 59.289328; 38075254.646616
3840.75; 60.252118; 38075315.980672
3841.77; 61.449107; 38075378.533211
3842.79; 62.718783; 38075442.378226
3843.81; 63.874705; 38075507.39992
3844.82; 64.74876; 38075573.311364
3845.84; 65.23031; 38075639.713005
3846.86; 65.290472; 38075706.175888
3847.88; 64.984515; 38075772.32732
3848.89; 64.431735; 38075837.916046
3849.91; 63.779311; 38075902.840632
3850.93; 63.162183; 38075967.13701
3851.95; 62.672538; 38076030.934949
3852.97; 62.349188; 38076094.403732
3853.98; 62.189662; 38076157.710125
3855.00; 62.178901; 38076221.005563
3856.02; 62.321458; 38076284.446118
3857.04; 62.662158; 38076348.233491
3858.06; 63.284302; 38076412.654179
3859.07; 64.283514; 38076478.092022
3860.09; 65.72569; 38076544.997938
3861.11; 67.604999; 38076613.81691
3862.13; 69.819325; 38076684.88997
3863.15; 72.174863; 38076758.360866
3864.16; 74.421099; 38076834.118333
3865.18; 76.305935; 38076911.794481
3866.20; 77.6331; 38076990.821627
3867.22; 78.30312; 38077070.530825
3868.24; 78.325398; 38077150.2627
3869.25; 77.799731; 38077229.459468
3870.27; 76.876551; 38077307.71648
3871.29; 75.711887; 38077384.787914
3872.31; 74.433191; 38077460.55769
3873.33; 73.126048; 38077534.996852
3874.34; 71.842262; 38077608.129174
3875.36; 70.621074; 38077680.018381
3876.38; 69.510794; 38077750.777369
3877.40; 68.579317; 38077820.588154
3878.42; 67.908081; 38077889.715651
3879.43; 67.571786; 38077958.500814
3880.45; 67.612498; 38078027.327418
3881.47; 68.018982; 38078096.567807
3882.49; 68.71977; 38078166.521568
3883.51; 69.592923; 38078237.36416
3884.52; 70.489312; 38078309.119239
3885.54; 71.26192; 38078381.660799
3886.56; 71.792599; 38078454.742566
3887.58; 72.00979; 38078528.045425
3888.60; 71.894576; 38078601.231001
3889.61; 71.476243; 38078673.990732
3890.63; 70.820974; 38078746.083427
3891.65; 70.017726; 38078817.358451
3892.67; 69.164398; 38078887.764824
3893.68; 68.35577; 38078957.348048
3894.70; 67.673557; 38079026.236808
3895.72; 67.178399; 38079094.621519
3896.74; 66.90385; 38079162.726752
3897.76; 66.852779; 38079230.779996
3898.77; 66.996807; 38079298.979854
3899.79; 67.279235; 38079367.467211
3900.81; 67.621546; 38079436.303027
3901.83; 67.933207; 38079505.4561
3902.85; 68.12424; 38079574.803636
3903.86; 68.119698; 38079644.146549
3904.88; 67.8746; 38079713.239963
3905.90; 67.386905; 38079781.836925
3906.92; 66.705135; 38079849.739874
3907.94; 65.926878; 38079916.850591
3908.95; 65.185413; 38079983.206529
3909.97; 64.624411; 38080048.991391
3910.99; 64.364522; 38080114.511697
3912.01; 64.469529; 38080180.138895
3913.03; 64.921823; 38080246.226509
3914.04; 65.61597; 38080313.020735
3915.06; 66.374834; 38080380.587452
3916.08; 66.986107; 38080448.776419
3917.10; 67.250504; 38080517.23453
3918.12; 67.028623; 38080585.466776
3919.13; 66.273503; 38080652.930342
3920.15; 65.040185; 38080719.138444
3921.17; 63.470844; 38080783.749024
3922.19; 61.761442; 38080846.619507
3923.21; 60.120844; 38080907.819932
3924.22; 58.734117; 38080967.608729
3925.24; 57.738497; 38081026.384028
3926.26; 57.214803; 38081084.626228
3927.28; 57.19143; 38081142.844635
3928.30; 57.654712; 38081201.534644
3929.31; 58.559338; 38081261.145523
3930.33; 59.835183; 38081322.055157
3931.35; 61.390685; 38081384.548226
3932.37; 63.115701; 38081448.797286
3933.39; 64.887481; 38081514.849942
3934.40; 66.581698; 38081582.627237
3935.42; 68.087551; 38081651.937427
3936.44; 69.323388; 38081722.505644
3937.46; 70.248303; 38081794.015385
3938.48; 70.866303; 38081866.154223
3939.49; 71.222187; 38081938.655336
3940.51; 71.391012; 38082011.328305
3941.53; 71.464714; 38082084.0763
3942.55; 71.539432; 38082156.900355
3943.56; 71.705652; 38082229.893614
3944.58; 72.041377; 38082303.228627
3945.60; 72.607121; 38082377.139543
3946.62; 73.441328; 38082451.899646
3947.64; 74.555703; 38082527.794134
3948.65; 75.931257; 38082605.088877
3949.67; 77.516772; 38082683.997605
3950.69; 79.231358; 38082764.651708
3951.71; 80.971746; 38082847.077452
3952.73; 82.623625; 38082931.184737
3953.74; 84.075182; 38083016.769644
3954.76; 85.230689; 38083103.530807
3955.78; 86.022304; 38083191.0978
3956.80; 86.418883; 38083279.068494
3957.82; 86.430928; 38083367.051449
3958.83; 86.11074; 38083454.708466
3959.85; 85.546497; 38083541.791109
3960.87; 84.849251; 38083628.163985
3961.89; 84.132973; 38083713.807721
3962.91; 83.490188; 38083798.79713
3963.92; 82.968337; 38083883.255316
3964.94; 82.553813; 38083967.291535
3965.96; 82.170166; 38084050.937219
3966.98; 81.693806; 38084134.097988
3968.00; 80.985212; 38084216.53744
3969.01; 79.928056; 38084297.900752
3970.03; 78.464854; 38084377.774588
3971.05; 76.61776; 38084455.768161
3972.07; 74.487245; 38084531.592962
3973.09; 72.228521; 38084605.11848
3974.10; 70.013071; 38084676.388765
3975.12; 67.98773; 38084745.59734
3976.14; 66.244267; 38084813.031145
3977.16; 64.808242; 38084879.003139
3978.18; 63.648516; 38084943.794582
3979.19; 62.701258; 38085007.621757
3980.21; 61.89756; 38085070.630801
3981.23; 61.183625; 38085132.913091
3982.25; 60.526936; 38085194.5269
3983.27; 59.90872; 38085255.511392
3984.28; 59.309469; 38085315.885872
3985.30; 58.697441; 38085375.637334
3986.32; 58.028639; 38085434.707984
3987.34; 57.261351; 38085492.997569
3988.35; 56.381278; 38085550.391277
3989.37; 55.427508; 38085606.814088
3990.39; 54.507704; 38085662.300579
3991.41; 53.79353; 38085717.06007
3992.43; 53.49377; 38085771.51442
3993.44; 53.810258; 38085826.290941
3994.46; 54.887778; 38085882.164331
3995.48; 56.771498; 38085939.955265
3996.50; 59.383485; 38086000.405091
3997.52; 62.524495; 38086064.052329
3998.53; 65.900485; 38086131.136179
3999.55; 69.167562; 38086201.545772
4000.57; 71.98578; 38086274.82419
4001.59; 74.071796; 38086350.226082
4002.61; 75.242162; 38086426.819356
4003.62; 75.441635; 38086503.615685
4004.64; 74.753241; 38086579.711259
4005.66; 73.38847; 38086654.417555
4006.68; 71.657379; 38086727.361674
4007.70; 69.920276; 38086798.537499
4008.71; 68.525796; 38086868.293802
4009.73; 67.744275; 38086937.25455
4010.75; 67.709294; 38087006.17969
4011.77; 68.382049; 38087075.789665
4012.79; 69.551169; 38087146.589754
4013.80; 70.873887; 38087218.736312
4014.82; 71.954086; 38087291.982466
4015.84; 72.44135; 38087365.724634
4016.86; 72.126557; 38087439.146357
4017.88; 71.007153; 38087511.428575
4018.89; 69.300961; 38087581.973963
4019.91; 67.400469; 38087650.584732
4020.93; 65.776572; 38087717.542444
4021.95; 64.856539; 38087783.563601
4022.97; 64.91026; 38087849.639445
4023.98; 65.977962; 38087916.802163
4025.00; 67.861254; 38087985.881992
4026.02; 70.18065; 38088057.322865
4027.04; 72.482385; 38088131.106805
4028.06; 74.362078; 38088206.804191
4029.07; 75.567668; 38088283.728816
4030.09; 76.051011; 38088361.145463
4031.11; 75.954371; 38088438.463736
4032.13; 75.539243; 38088515.359426
4033.15; 75.083343; 38088591.791029
4034.16; 74.781151; 38088667.915013
4035.18; 74.680841; 38088743.936887
4036.20; 74.676956; 38088819.954806
4037.22; 74.558617; 38088895.852261
4038.23; 74.094177; 38088971.276936
4039.25; 73.121653; 38089045.711624
4040.27; 71.61359; 38089118.611168
4041.29; 69.695126; 38089189.557798
4042.31; 67.610897; 38089258.382774
4043.32; 65.653894; 38089325.215605
4044.34; 64.081316; 38089390.447619
4045.36; 63.045181; 38089454.624892
4046.38; 62.558524; 38089518.30677
4047.40; 62.504753; 38089581.933911
4048.41; 62.68317; 38089645.742673
4049.43; 62.873007; 38089709.744681
4050.45; 62.894756; 38089773.768828
4051.47; 62.651475; 38089837.545326
4052.49; 62.14162; 38089900.802814
4053.50; 61.445015; 38089963.351187
4054.52; 60.691072; 38090025.13208
4055.54; 60.021194; 38090086.231066
4056.56; 59.555552; 38090146.856048
4057.58; 59.369976; 38090207.292122
4058.59; 59.484053; 38090267.84432
4059.61; 59.858742; 38090328.777937
4060.63; 60.401409; 38090390.263965
4061.65; 60.977412; 38090452.336339
4062.67; 61.428509; 38090514.86791
4063.68; 61.598023; 38090577.57204
4064.70; 61.360582; 38090640.034465
4065.72; 60.651082; 38090701.774649
4066.74; 59.485303; 38090762.32812
4067.76; 57.964701; 38090821.333684
4068.77; 56.261252; 38090878.60521
4069.79; 54.58388; 38090934.169245
4070.81; 53.134047; 38090988.257411
4071.83; 52.062154; 38091041.254437
4072.85; 51.436725; 38091093.614804
4073.86; 51.234626; 38091145.769443
4074.88; 51.35411; 38091198.045711
4075.90; 51.645583; 38091250.618686
4076.92; 51.950141; 38091303.501687
4077.94; 52.134662; 38091356.572524
4078.95; 52.114761; 38091409.623102
4079.97; 51.861841; 38091462.416218
4080.99; 51.395866; 38091514.734991
4082.01; 50.769362; 38091566.416011
4083.02; 50.049408; 38091617.364148
4084.04; 49.303134; 38091667.552611
4085.06; 48.589434; 38091717.014558
4086.08; 47.956662; 38091765.83237
4087.10; 47.444065; 38091814.128381
4088.11; 47.084147; 38091862.058011
4089.13; 46.903763; 38091909.804017
4090.15; 46.922904; 38091957.569509
4091.17; 47.151265; 38092005.567462
4092.19; 47.583375; 38092054.005284
4093.20; 48.193444; 38092103.064131
4094.22; 48.931346; 38092152.874129
4095.24; 49.721371; 38092203.48834
4096.26; 50.465583; 38092254.860125
4097.28; 51.053249; 38092306.83013
4098.29; 51.376728; 38092359.129422
4099.31; 51.352217; 38092411.403763
4100.33; 50.941433; 38092463.259944
4101.35; 50.168511; 38092514.329323
4102.37; 49.126021; 38092564.337492
4103.38; 47.965816; 38092613.164623
4104.40; 46.874087; 38092660.880421
4105.42; 46.034726; 38092707.741785
4106.44; 45.589228; 38092754.149653
4107.46; 45.603512; 38092800.57206
4108.47; 46.051016; 38092847.450007
4109.49; 46.817556; 38092895.108259
4110.51; 47.727457; 38092943.692751
4111.53; 48.584502; 38092993.149677
4112.55; 49.216915; 38093043.250373
4113.56; 49.514455; 38093093.653951
4114.58; 49.448078; 38093143.98996
4115.60; 49.067743; 38093193.938806
4116.62; 48.48031; 38093243.289669
4117.64; 47.815075; 38093291.963353
4118.65; 47.187733; 38093339.998429
4119.67; 46.673415; 38093387.509951
4120.69; 46.296159; 38093434.637443
4121.71; 46.036694; 38093481.500811
4122.73; 45.854466; 38093528.178679
4123.74; 45.71533; 38093574.714912
4124.76; 45.614602; 38093621.148608
4125.78; 45.586824; 38093667.554028
4126.80; 45.698246; 38093714.07287
4127.82; 46.024078; 38093760.923395
4128.83; 46.618221; 38093808.378733
4129.85; 47.48634; 38093856.717778
4130.87; 48.572656; 38093906.162646
4131.89; 49.766664; 38093956.822962
4132.90; 50.929221; 38094008.666712
4133.92; 51.930536; 38094061.529756
4134.94; 52.687706; 38094115.163567
4135.96; 53.188784; 38094169.307454
4136.98; 53.49415; 38094223.76219
4137.99; 53.713457; 38094278.440171
4139.01; 53.964886; 38094333.374097
4140.03; 54.330196; 38094388.679892
4141.05; 54.821284; 38094444.485594
4142.07; 55.370908; 38094500.850789
4143.08; 55.852462; 38094557.706185
4144.10; 56.123866; 38094614.837859
4145.12; 56.082053; 38094671.926969
4146.14; 55.710185; 38094728.637533
4147.16; 55.101266; 38094784.728244
4148.17; 54.448814; 38094840.154787
4149.19; 54.005458; 38094895.130013
4150.21; 54.020381; 38094950.120429
4151.23; 54.673227; 38095005.775416
4152.25; 56.02322; 38095062.804637
4153.26; 57.987716; 38095121.833629
4154.28; 60.355725; 38095183.273153
4155.30; 62.832012; 38095247.23343
4156.32; 65.099214; 38095313.501621
4157.34; 66.881442; 38095381.584043
4158.35; 67.99377; 38095450.798767
4159.37; 68.367262; 38095520.393689
4160.39; 68.046773; 38095589.662368
4161.41; 67.16623; 38095658.034691
4162.43; 65.911313; 38095725.129564
4163.44; 64.481186; 38095790.768629
4164.46; 63.05897; 38095854.959939
4165.48; 61.796184; 38095917.865788
4166.50; 60.810822; 38095979.768581
4167.52; 60.194151; 38096041.043629
4168.53; 60.018961; 38096102.140341
4169.55; 60.342526; 38096163.566429
4170.57; 61.20075; 38096225.866151
4171.59; 62.594495; 38096289.584645
4172.61; 64.473466; 38096355.215851
4173.62; 66.725474; 38096423.139504
4174.64; 69.178461; 38096493.560192
4175.66; 71.619169; 38096566.465415
4176.68; 73.826868; 38096641.617981
4177.69; 75.614848; 38096718.590634
4178.71; 76.868564; 38096796.839515
4179.73; 77.568936; 38096875.801344
4180.75; 77.792838; 38096954.991096
4181.77; 77.689334; 38097034.075486
4182.78; 77.437709; 38097112.903732
4183.80; 77.199231; 38097191.489218
4184.82; 77.07683; 38097269.950104
4185.84; 77.094501; 38097348.42898
4186.86; 77.202043; 38097427.017329
4187.87; 77.302686; 38097505.708127
4188.89; 77.294036; 38097584.39012
4189.91; 77.108861; 38097662.883614
4190.93; 76.742827; 38097741.0045
4191.95; 76.260937; 38097818.634844
4192.96; 75.78143; 38097895.777069
4193.98; 75.442795; 38097972.574579
4195.00; 75.364191; 38098049.292073
4196.02; 75.610688; 38098126.260491
4197.04; 76.172433; 38098203.800741
4198.05; 76.962243; 38098282.144984
4199.07; 77.830979; 38098361.373561
4200.09; 78.595893; 38098441.380789
4201.11; 79.0749; 38098521.875626
4202.13; 79.119479; 38098602.415841
4203.14; 78.640239; 38098682.46821
4204.16; 77.621253; 38098761.483296
4205.18; 76.121464; 38098838.971662
4206.20; 74.263576; 38098914.568778
4207.22; 72.212655; 38098988.078144
4208.23; 70.148276; 38099059.486061
4209.25; 68.235259; 38099128.946611
4210.27; 66.598497; 38099196.741007
4211.29; 65.30676; 38099263.220471
4212.31; 64.368517; 38099328.744844
4213.32; 63.739942; 38099393.629354
4214.34; 63.342245; 38099458.109027
4215.36; 63.083121; 38099522.324922
4216.38; 62.876377; 38099586.33036
4217.40; 62.654945; 38099650.110391
4218.41; 62.375187; 38099713.60564
4219.43; 62.013573; 38099776.732782
4220.45; 61.559396; 38099839.39759
4221.47; 61.008037; 38099901.501139
4222.49; 60.358266; 38099962.943249
4223.50; 59.614569; 38100023.628308
4224.52; 58.792655; 38100083.476694
4225.54; 57.924342; 38100142.441174
4226.56; 57.057851; 38100200.523605
4227.57; 56.251211; 38100257.78491
4228.59; 55.559417; 38100314.342
4229.61; 55.01894; 38100370.348906
4230.63; 54.634935; 38100425.964913
4231.65; 54.376249; 38100481.317587
4232.66; 54.181029; 38100536.471537
4233.68; 53.972225; 38100591.412933
4234.70; 53.678675; 38100646.055507
4235.72; 53.255255; 38100700.267059
4236.74; 52.695444; 38100753.908747
4237.75; 52.031831; 38100806.874905
4238.77; 51.323895; 38100859.120415
4239.79; 50.636501; 38100910.666187
4240.81; 50.015762; 38100961.580074
4241.83; 49.470025; 38101011.938425
4242.84; 48.962447; 38101061.780084
4243.86; 48.418237; 38101111.06776
4244.88; 47.745236; 38101159.67035
4245.90; 46.862362; 38101207.374212
4246.92; 45.727878; 38101253.923219
4247.93; 44.359214; 38101299.078984
4248.95; 42.838216; 38101342.68644
4249.97; 41.29969; 38101384.727742
4250.99; 39.905644; 38101425.349965
4252.01; 38.811534; 38101464.858432
4253.02; 38.132872; 38101503.67605
4254.04; 37.920341; 38101542.277321
4255.06; 38.149123; 38101581.111481
4256.08; 38.724368; 38101620.531217
4257.10; 39.500674; 38101660.741199
4258.11; 40.310257; 38101701.775302
4259.13; 40.993022; 38101743.504429
4260.15; 41.422083; 38101785.670322
4261.17; 41.520261; 38101827.936157
4262.19; 41.265778; 38101869.942938
4263.20; 40.688053; 38101911.361621
4264.22; 39.856357; 38101951.933673
4265.24; 38.864826; 38101991.496389
4266.26; 37.817041; 38102029.992504
4267.28; 36.812428; 38102067.465968
4268.29; 35.935629; 38102104.046888
4269.31; 35.249172; 38102139.929024
4270.33; 34.789373; 38102175.343104
4271.35; 34.565367; 38102210.529156
4272.36; 34.561227; 38102245.710994
4273.38; 34.74107; 38102281.075904
4274.40; 35.056645; 38102316.762056
4275.42; 35.456328; 38102352.855068
4276.44; 35.893878; 38102389.393487
4277.45; 36.335038; 38102426.380988
4278.47; 36.760405; 38102463.801494
4279.49; 37.163847; 38102501.632686
4280.51; 37.546995; 38102539.853908
4281.53; 37.911582; 38102578.446262
4282.54; 38.252152; 38102617.385302
4283.56; 38.551741; 38102656.629311
4284.58; 38.782332; 38102696.108052
4285.60; 38.910496; 38102735.717258
4286.62; 38.907064; 38102775.32297
4287.63; 38.75834; 38102814.777287
4288.65; 38.475726; 38102853.943916
4289.67; 38.100814; 38102892.728901
4290.69; 37.704014; 38102931.10996
4291.71; 37.376206; 38102969.157325
4292.72; 37.214549; 38103007.04013
4293.74; 37.304894; 38103045.014903
4294.76; 37.704084; 38103083.396034
4295.78; 38.425686; 38103122.511724
4296.80; 39.432292; 38103162.652095
4297.81; 40.636604; 38103204.018404
4298.83; 41.912156; 38103246.68317
4299.85; 43.112803; 38103290.570143
4300.87; 44.09829; 38103335.4603
4301.89; 44.761552; 38103381.025628
4302.90; 45.052307; 38103426.886933
4303.92; 44.99145; 38103472.686288
4304.94; 44.671986; 38103518.160442
4305.96; 44.244798; 38103563.199737
4306.98; 43.89098; 38103607.878861
4307.99; 43.785981; 38103652.4511
4309.01; 44.063353; 38103697.305691
4310.03; 44.786634; 38103742.896552
4311.05; 45.93628; 38103789.657703
4312.07; 47.414945; 38103837.924071
4313.08; 49.069632; 38103887.874839
4314.10; 50.724789; 38103939.510486
4315.12; 52.217596; 38103992.665745
4316.14; 53.426452; 38104047.051568
4317.15; 54.286114; 38104102.312489
4318.17; 54.787202; 38104158.083496
4319.19; 54.9625; 38104214.032949
4320.21; 54.86614; 38104269.884312
4321.23; 54.553108; 38104325.417023
4322.24; 54.065425; 38104380.453292
4323.26; 53.428251; 38104434.840947
4324.28; 52.655387; 38104488.441858
4325.30; 51.760457; 38104541.13177
4326.32; 50.768626; 38104592.812041
4327.33; 49.72414; 38104643.42907
4328.35; 48.691093; 38104692.994501
4329.37; 47.747372; 38104741.599266
4330.39; 46.973981; 38104789.416752
4331.41; 46.442922; 38104836.693642
4332.42; 46.2066; 38104883.729967
4333.44; 46.290599; 38104930.8518
4334.46; 46.690365; 38104978.380577
4335.48; 47.371452; 38105026.60267
4336.50; 48.27276; 38105075.742257
4337.51; 49.312444; 38105125.940197
4338.53; 50.396441; 38105177.2416
4339.55; 51.42943; 38105229.59454
4340.57; 52.327284; 38105282.861457
4341.59; 53.029033; 38105336.842725
4342.60; 53.505496; 38105391.309011
4343.62; 53.761805; 38105446.036209
4344.64; 53.83217; 38105500.835035
4345.66; 53.767415; 38105555.567943
4346.68; 53.61821; 38105610.148967
4347.69; 53.418723; 38105664.526922
4348.71; 53.175754; 38105718.657545
4349.73; 52.867001; 38105772.473871
4350.75; 52.449372; 38105825.865068
4351.77; 51.875017; 38105878.671596
4352.78; 51.110239; 38105930.699614
4353.80; 50.151491; 38105981.751668
4354.82; 49.033631; 38106031.665788
4355.84; 47.828107; 38106080.352738
4356.86; 46.631827; 38106127.821925
4357.87; 45.550068; 38106174.189928
4358.89; 44.678078; 38106219.670284
4359.91; 44.0857; 38106264.547624
4360.93; 43.807823; 38106309.142098
4361.95; 43.841432; 38106353.770784
4362.96; 44.148347; 38106398.711897
4363.98; 44.661919; 38106444.175803
4365.00; 45.295975; 38106490.285152
4366.02; 45.954939; 38106537.065297
4367.03; 46.544544; 38106584.445634
4368.05; 46.982637; 38106632.271932
4369.07; 47.209146; 38106680.328805
4370.09; 47.193622; 38106728.369876
4371.11; 46.938552; 38106776.151296
4372.12; 46.477074; 38106823.462951
4373.14; 45.865138; 38106870.151683
4374.16; 45.169836; 38106916.132627
4375.18; 44.457053; 38106961.387988
4376.20; 43.781992; 38107005.956166
4377.21; 43.185104; 38107049.916739
4378.23; 42.693882; 38107093.377268
4379.25; 42.328605; 38107136.465962
4380.27; 42.108418; 38107179.330514
4381.29; 42.054014; 38107222.139685
4382.30; 42.184677; 38107265.081866
4383.32; 42.51011; 38107308.355323
4384.34; 43.020143; 38107352.147972
4385.36; 43.676929; 38107396.609201
4386.38; 44.413859; 38107441.820593
4387.39; 45.143205; 38107487.774427
4388.41; 45.771267; 38107534.367602
4389.43; 46.216884; 38107581.414395
4390.45; 46.427756; 38107628.675847
4391.47; 46.389718; 38107675.898578
4392.48; 46.126602; 38107722.853468
4393.50; 45.691595; 38107769.365541
4394.52; 45.153677; 38107815.330036
4395.54; 44.583807; 38107860.714427
4396.56; 44.044664; 38107905.549995
4397.57; 43.585537; 38107949.918191
4398.59; 43.241483; 38107993.936155
4399.61; 43.034331; 38108037.743246
4400.63; 42.973129; 38108081.488037
4401.65; 43.053037; 38108125.314171
4402.66; 43.253646; 38108169.344517
4403.68; 43.53906; 38108213.665401
4404.70; 43.862003; 38108258.315028
4405.72; 44.172587; 38108303.280815
4406.74; 44.429942; 38108348.508578
4407.75; 44.61288; 38108393.922565
4408.77; 44.725274; 38108439.450964
4409.79; 44.793359; 38108485.04867
4410.81; 44.855252; 38108530.709381
4411.82; 44.946348; 38108576.462824
4412.84; 45.086336; 38108622.358768
4413.86; 45.273323; 38108668.445058
4414.88; 45.487844; 38108714.74972
4415.90; 45.705289; 38108761.275732
4416.91; 45.911384; 38108808.01154
4417.93; 46.113399; 38108854.95299
4418.95; 46.340966; 38108902.126093
4419.97; 46.634315; 38108949.597813
4420.99; 47.023152; 38108997.465353
4422.00; 47.503995; 38109045.82237
4423.02; 48.025648; 38109094.710407
4424.04; 48.49062; 38109144.071766
4425.06; 48.775104; 38109193.722718
4426.08; 48.763372; 38109243.361726
4427.09; 48.386641; 38109292.617238
4428.11; 47.653782; 38109341.126732
4429.13; 46.662885; 38109388.627536
4430.15; 45.588244; 38109435.034401
4431.17; 44.644933; 38109480.481016
4432.18; 44.040332; 38109525.312173
4433.20; 43.926143; 38109570.027091
4434.22; 44.364343; 38109615.188078
4435.24; 45.316192; 38109661.318005
4436.26; 46.656341; 38109708.812148
4437.27; 48.206708; 38109757.884496
4438.29; 49.779438; 38109808.557816
4439.31; 51.216585; 38109860.694089
4440.33; 52.416336; 38109914.051657
4441.35; 53.340711; 38109968.350199
4442.36; 54.005759; 38110023.325731
4443.38; 54.460355; 38110078.764023
4444.40; 54.762163; 38110134.509542
4445.42; 54.958846; 38110190.455275
4446.44; 55.079466; 38110246.523795
4447.45; 55.136817; 38110302.650695
4448.47; 55.137439; 38110358.778229
4449.49; 55.093717; 38110414.861255
4450.51; 55.032276; 38110470.881737
4451.53; 54.994658; 38110526.863926
4452.54; 55.029309; 38110582.881388
4453.56; 55.177149; 38110639.049345
4454.58; 55.45545; 38110695.5006
4455.60; 55.84578; 38110752.349194
4456.62; 56.29102; 38110809.651023
4457.63; 56.704259; 38110867.373512
4458.65; 56.989034; 38110925.38589
4459.67; 57.066883; 38110983.477515
4460.69; 56.905344; 38111041.4047
4461.70; 56.538234; 38111098.958183
4462.72; 56.070978; 38111156.036019
4463.74; 55.66694; 38111212.702561
4464.76; 55.515671; 38111269.215119
4465.78; 55.789393; 38111326.006313
4466.79; 56.598329; 38111383.62097
4467.81; 57.95707; 38111442.618766
4468.83; 59.772102; 38111503.464186
4469.85; 61.855277; 38111566.43019
4470.87; 63.960629; 38111631.539349
4471.88; 65.835055; 38111698.556595
4472.90; 67.269167; 38111767.033704
4473.92; 68.134729; 38111836.391917
4474.94; 68.399656; 38111906.019816
4475.96; 68.118908; 38111975.361924
4476.97; 67.407214; 38112043.979559
4477.99; 66.404661; 38112111.576639
4479.01; 65.246847; 38112177.995114
4480.03; 64.047657; 38112243.192865
4481.05; 62.896317; 38112307.218601
4482.06; 61.864043; 38112370.193528
4483.08; 61.012083; 38112432.301196
4484.10; 60.393608; 38112493.779283
4485.12; 60.046373; 38112554.903899
4486.14; 59.97913; 38112615.960065
4487.15; 60.159526; 38112677.199867
4488.17; 60.5122; 38112738.798675
4489.19; 60.932305; 38112800.825132
4490.21; 61.313033; 38112863.239154
4491.23; 61.578723; 38112925.923636
4492.24; 61.711152; 38112988.742925
4493.26; 61.757649; 38113051.609547
4494.28; 61.815841; 38113114.535406
4495.30; 61.998833; 38113177.647542
4496.32; 62.392914; 38113241.160836
4497.33; 63.023746; 38113305.31629
4498.35; 63.844722; 38113370.307462
4499.37; 64.753104; 38113436.223327
4500.39; 65.628866; 38113503.030681
4501.41; 66.381871; 38113570.604561
4502.42; 66.989048; 38113638.796521
4503.44; 67.506354; 38113707.515076
4504.46; 68.049506; 38113776.786537
4505.48; 68.749401; 38113846.770461
4506.49; 69.698199; 38113917.72022
4507.51; 70.906254; 38113989.899727
4508.53; 72.286788; 38114063.484558
4509.55; 73.675371; 38114138.482906
4510.57; 74.87863; 38114214.706121
4511.58; 75.735777; 38114291.801873
4512.60; 76.171556; 38114369.34123
4513.62; 76.221984; 38114446.931922
4514.64; 76.023679; 38114524.320746
4515.66; 75.770352; 38114601.451695
4516.67; 75.651478; 38114678.461635
4517.69; 75.79422; 38114755.61688
4518.71; 76.22838; 38114833.214082
4519.73; 76.885993; 38114911.480705
4520.75; 77.635147; 38114990.509934
4521.76; 78.335997; 38115070.252599
4522.78; 78.899563; 38115150.568949
4523.80; 79.329157; 38115231.322608
4524.82; 79.730219; 38115312.48453
4525.84; 80.284678; 38115394.210868
4526.85; 81.197287; 38115476.866202
4527.87; 82.630098; 38115560.980077
4528.89; 84.644697; 38115647.144726
4529.91; 87.169421; 38115735.879435
4530.93; 90.00142; 38115827.496996
4531.94; 92.843591; 38115922.007766
4532.96; 95.366956; 38116019.087212
4533.98; 97.282498; 38116118.116597
4535.00; 98.404308; 38116218.287936
4536.02; 98.688435; 38116318.748504
4537.03; 98.238153; 38116418.750705
4538.05; 97.274845; 38116517.772299
4539.07; 96.082205; 38116615.579838
4540.09; 94.938071; 38116712.222697
4541.11; 94.051223; 38116807.962784
4542.12; 93.519205; 38116903.161299
4543.14; 93.317707; 38116998.154698
4544.16; 93.323564; 38117093.15406
4545.18; 93.364051; 38117188.194635
4546.20; 93.277593; 38117283.147199
4547.21; 92.967494; 38117377.784096
4548.23; 92.432282; 38117471.876171
4549.25; 91.763451; 38117565.287404
4550.27; 91.111752; 38117658.035236
4551.29; 90.633469; 38117750.296197
4552.30; 90.43482; 38117842.354941
4553.32; 90.533306; 38117934.51394
4554.34; 90.848989; 38118026.994291
4555.36; 91.228271; 38118119.860734
4556.37; 91.491398; 38118212.995029
4557.39; 91.486754; 38118306.124597
4558.41; 91.13305; 38118398.89411
4559.43; 90.435526; 38118490.953573
4560.45; 89.472199; 38118582.03241
4561.46; 88.357327; 38118671.976356
4562.48; 87.197138; 38118760.73928
4563.50; 86.054745; 38118848.339297
4564.52; 84.936337; 38118934.800823
4565.54; 83.801564; 38119020.107199
4566.55; 82.591272; 38119104.18155
4567.57; 81.259432; 38119186.900145
4568.59; 79.795667; 38119268.128692
4569.61; 78.229907; 38119347.763361
4570.63; 76.619103; 38119425.758302
4571.64; 75.023608; 38119502.129098
4572.66; 73.484668; 38119576.933318
4573.68; 72.012947; 38119650.239391
4574.70; 70.592149; 38119722.099153
4575.72; 69.194471; 38119792.536139
4576.73; 67.799285; 38119861.552885
4577.75; 66.405374; 38119929.150691
4578.77; 65.030692; 38119995.349129
4579.79; 63.699981; 38120060.192961
4580.81; 62.42677; 38120123.740719
4581.82; 61.199207; 38120186.03887
4582.84; 59.977679; 38120247.093559
4583.86; 58.706803; 38120306.854551
4584.88; 57.337714; 38120365.22187
4585.90; 55.851547; 38120422.076335
4586.91; 54.273967; 38120477.324892
4587.93; 52.673851; 38120530.944599
4588.95; 51.145494; 38120583.008505
4589.97; 49.780188; 38120633.682588
4590.99; 48.63713; 38120683.193088
4592.00; 47.723754; 38120731.773809
4593.02; 46.991967; 38120779.609604
4594.04; 46.350992; 38120826.792914
4595.06; 45.692012; 38120873.30541
4596.08; 44.916527; 38120919.028497
4597.09; 43.960137; 38120963.77802
4598.11; 42.805924; 38121007.352603
4599.13; 41.485386; 38121049.582936
4600.15; 40.068373; 38121090.37081
4601.16; 38.6457; 38121129.710466
4602.18; 37.308864; 38121167.689279
4603.20; 36.13087; 38121204.468946
4604.22; 35.15149; 38121240.251646
4605.24; 34.369454; 38121275.238267
4606.25; 33.743366; 38121309.587557
4607.27; 33.201943; 38121343.385702
4608.29; 32.662387; 38121376.634602
4609.31; 32.053361; 38121409.26354
4610.33; 31.336938; 38121441.163191
4611.34; 30.522996; 38121472.234284
4612.36; 29.670694; 38121502.43777
4613.38; 28.874973; 38121531.831247
4614.40; 28.240658; 38121560.579018
4615.42; 27.85106; 38121588.930196
4616.43; 27.74045; 38121617.168776
4617.45; 27.879108; 38121645.548506
4618.47; 28.176057; 38121674.230516
4619.49; 28.499087; 38121703.241357
4620.51; 28.706348; 38121732.463181
4621.52; 28.680377; 38121761.658567
4622.54; 28.35508; 38121790.522815
4623.56; 27.728952; 38121818.749691
4624.58; 26.862292; 38121846.094346
4625.60; 25.860915; 38121872.419641
4626.61; 24.852043; 38121897.717949
4627.63; 23.9591; 38121922.107279
4628.65; 23.28091; 38121945.806241
4629.67; 22.878432; 38121969.095498
4630.69; 22.769576; 38121992.273943
4631.70; 22.930895; 38122015.616605
4632.72; 23.304248; 38122039.339324
4633.74; 23.806672; 38122063.573488
4634.76; 24.342169; 38122088.352765
4635.78; 24.814351; 38122113.612703
4636.79; 25.138762; 38122139.202878
4637.81; 25.253433; 38122164.909783
4638.83; 25.126114; 38122190.487083
4639.85; 24.757017; 38122215.688658
4640.87; 24.176785; 38122240.299582
4641.88; 23.440425; 38122264.160923
4642.90; 22.618713; 38122287.185796
4643.92; 21.788778; 38122309.365832
4644.94; 21.025108; 38122330.768485
4645.96; 20.391559; 38122351.526212
4646.97; 19.934369; 38122371.81854
4647.99; 19.676261; 38122391.848125
4649.01; 19.612219; 38122411.812517
4650.03; 19.708317; 38122431.874734
4651.04; 19.905255; 38122452.137424
4652.06; 20.127664; 38122472.626518
4653.08; 20.298643; 38122493.28966
4654.10; 20.356868; 38122514.012073
4655.12; 20.271863; 38122534.647955
4656.13; 20.052527; 38122555.060562
4657.15; 19.745328; 38122575.160454
4658.17; 19.421545; 38122594.930749
4659.19; 19.156552; 38122614.431292
4660.21; 19.00723; 38122633.779832
4661.22; 18.99471; 38122653.115628
4662.24; 19.098335; 38122672.556909
4663.26; 19.263162; 38122692.165976
4664.28; 19.418751; 38122711.933427
4665.30; 19.502994; 38122731.786633
4666.31; 19.482859; 38122751.619343
4667.33; 19.364908; 38122771.331984
4668.35; 19.191964; 38122790.868575
4669.37; 19.02716; 38122810.237403
4670.39; 18.931008; 38122829.508353
4671.40; 18.939494; 38122848.787941
4672.42; 19.050691; 38122868.180722
4673.44; 19.224278; 38122887.750207
4674.46; 19.393724; 38122907.492181
4675.48; 19.486595; 38122927.328694
4676.49; 19.445867; 38122947.123748
4677.51; 19.245235; 38122966.714567
4678.53; 18.893948; 38122985.947791
4679.55; 18.430623; 38123004.709369
4680.57; 17.909335; 38123022.9403
4681.58; 17.383572; 38123040.636026
4682.60; 16.893737; 38123057.833121
4683.62; 16.461899; 38123074.590624
4684.64; 16.094334; 38123090.973961
4685.66; 15.789384; 38123107.046872
4686.67; 15.546427; 38123122.872464
4687.69; 15.371811; 38123138.520304
4688.71; 15.279289; 38123154.073961
4689.73; 15.285063; 38123169.633495
4690.75; 15.399775; 38123185.309802
4691.76; 15.621019; 38123201.211325
4692.78; 15.929572; 38123217.426942
4693.80; 16.291018; 38123234.010495
4694.82; 16.662271; 38123250.971967
4695.83; 17.000701; 38123268.277948
4696.85; 17.272721; 38123285.860833
4697.87; 17.459081; 38123303.633424
4698.89; 17.555509; 38123321.504175
4699.91; 17.569111; 38123339.388772
4700.92; 17.512421; 38123357.215661
4701.94; 17.397662; 38123374.92573
4702.96; 17.233412; 38123392.4686
4703.98; 17.024706; 38123409.799016
4705.00; 16.776109; 38123426.876371
4706.01; 16.496042; 38123443.66863
4707.03; 16.200112; 38123460.159645
4708.05; 15.91152; 38123476.356885
4709.07; 15.657774; 38123492.295823
4710.09; 15.464362; 38123508.037876
4711.10; 15.347389; 38123523.660856
4712.12; 15.307797; 38123539.243532
4713.14; 15.32952; 38123554.848322
4714.16; 15.382786; 38123570.507335
4715.18; 15.432061; 38123586.216507
4716.19; 15.44649; 38123601.940368
4717.21; 15.409652; 38123617.626728
4718.23; 15.32543; 38123633.227354
4719.25; 15.217887; 38123648.718506
4720.27; 15.124907; 38123664.115009
4721.28; 15.087416; 38123679.473348
4722.30; 15.137462; 38123694.882631
4723.32; 15.288881; 38123710.446052
4724.34; 15.533373; 38123726.258355
4725.36; 15.843014; 38123742.385859
4726.37; 16.178045; 38123758.854411
4727.39; 16.497079; 38123775.647726
4728.41; 16.766247; 38123792.715042
4729.43; 16.964447; 38123809.984117
4730.45; 17.083551; 38123827.374434
4731.46; 17.124401; 38123844.806336
4732.48; 17.09104; 38123862.204277
4733.50; 16.986087; 38123879.495381
4734.52; 16.809507; 38123896.606734
4735.54; 16.561368; 38123913.465492
4736.55; 16.247317; 38123930.004559
4737.57; 15.884156; 38123946.173945
4738.59; 15.502609; 38123961.954932
4739.61; 15.145254; 38123977.372146
4740.63; 14.859384; 38123992.498358
4741.64; 14.686456; 38124007.448537
4742.66; 14.651233; 38124022.362859
4743.68; 14.75406; 38124037.381855
4744.70; 14.968904; 38124052.619553
4745.71; 15.248079; 38124068.14144
4746.73; 15.532577; 38124083.952933
4747.75; 15.765263; 38124100.00129
4748.77; 15.903439; 38124116.190304
4749.79; 15.927508; 38124132.40382
4750.80; 15.843709; 38124148.532032
4751.82; 15.680547; 38124164.494152
4752.84; 15.480263; 38124180.252392
4753.86; 15.287827; 38124195.81474
4754.88; 15.140412; 38124211.227026
4755.89; 15.05985; 38124226.557303
4756.91; 15.049604; 38124241.877151
4757.93; 15.096436; 38124257.244672
4758.95; 15.175771; 38124272.692952
4759.97; 15.25896; 38124288.225915
4760.98; 15.320432; 38124303.821454
4762.00; 15.343076; 38124319.440043
4763.02; 15.320958; 38124335.036117
4764.04; 15.259297; 38124350.569423
4765.06; 15.172314; 38124366.014184
4766.07; 15.079863; 38124381.364834
4767.09; 15.003708; 38124396.637961
4768.11; 14.963976; 38124411.870642
4769.13; 14.975988; 38124427.115552
4770.15; 15.047482; 38124442.43324
4771.16; 15.176358; 38124457.882117
4772.18; 15.349371; 38124473.507115
4773.20; 15.542455; 38124489.328664
4774.22; 15.723359; 38124505.334364
4775.24; 15.856837; 38124521.47594
4776.25; 15.911798; 38124537.673464
4777.27; 15.868863; 38124553.827281
4778.29; 15.726136; 38124569.83581
4779.31; 15.50103; 38124585.615189
4780.33; 15.226855; 38124601.11547
4781.34; 14.944484; 38124616.32831
4782.36; 14.691148; 38124631.283264
4783.38; 14.489743; 38124646.033198
4784.40; 14.342273; 38124660.633013
4785.42; 14.230026; 38124675.118566
4786.43; 14.12098; 38124689.493113
4787.45; 13.982419; 38124703.726612
4788.47; 13.794748; 38124717.76907
4789.49; 13.561716; 38124731.574312
4790.50; 13.31319; 38124745.126565
4791.52; 13.098915; 38124758.460695
4792.54; 12.974737; 38124771.668418
4793.56; 12.985382; 38124784.886976
4794.58; 13.14924; 38124798.272334
4795.59; 13.450162; 38124811.964019
4796.61; 13.839078; 38124826.051604
4797.63; 14.245158; 38124840.55256
4798.65; 14.593217; 38124855.407825
4799.67; 14.822164; 38124870.496149
4800.68; 14.899118; 38124885.662808
4801.70; 14.8254; 38124900.754425
4802.72; 14.633288; 38124915.650481
4803.74; 14.375296; 38124930.283911
4804.76; 14.10979; 38124944.647069
4805.77; 13.887422; 38124958.783865
4806.79; 13.741971; 38124972.772599
4807.81; 13.687269; 38124986.705648
4808.83; 13.719668; 38125000.671678
4809.85; 13.823832; 38125014.743743
4810.86; 13.978998; 38125028.973759
4811.88; 14.163425; 38125043.391515
4812.90; 14.356066; 38125058.005371
4813.92; 14.535995; 38125072.802387
4814.94; 14.681221; 38125087.747236
4815.95; 14.76862; 38125102.781054
4816.97; 14.7761; 38125117.822486
4817.99; 14.686807; 38125132.773023
4819.01; 14.494047; 38125147.527337
4820.03; 14.20491; 38125161.987322
4821.04; 13.840867; 38125176.076727
4822.06; 13.434573; 38125189.752543
4823.08; 13.023549; 38125203.009954
4824.10; 12.642615; 38125215.879591
4825.12; 12.3175; 38125228.418274
4826.13; 12.061652; 38125240.696515
4827.15; 11.877092; 38125252.786882
4828.17; 11.75865; 38125264.756681
4829.19; 11.69961; 38125276.666379
4830.21; 11.696339; 38125288.572747
4831.22; 11.749899; 38125300.533638
4832.24; 11.86395; 38125312.610627
4833.26; 12.039823; 38125324.866647
4834.28; 12.270926; 38125337.35792
4835.30; 12.539052; 38125350.122134
4836.31; 12.814589; 38125363.166832
4837.33; 13.061199; 38125376.462569
4838.35; 13.243834; 38125389.94422
4839.37; 13.337603; 38125403.521325
4840.38; 13.334583; 38125417.095354
4841.40; 13.246193; 38125430.579408
4842.42; 13.10027; 38125443.914917
4843.44; 12.933654; 38125457.080818
4844.46; 12.782594; 38125470.092948
4845.47; 12.673851; 38125482.994381
4846.49; 12.619043; 38125495.840022
4847.51; 12.613601; 38125508.680124
4848.53; 12.640209; 38125521.547311
4849.55; 12.675262; 38125534.450181
4850.56; 12.696192; 38125547.374356
4851.58; 12.687512; 38125560.289696
4852.60; 12.644136; 38125573.160881
4853.62; 12.571496; 38125585.958121
4854.64; 12.482911; 38125598.665186
4855.65; 12.395295; 38125611.283062
4856.67; 12.324457; 38125623.828827
4857.69; 12.2811; 38125636.330456
4858.71; 12.268278; 38125648.819034
4859.73; 12.280665; 38125661.32022
4860.74; 12.305696; 38125673.846888
4861.76; 12.326388; 38125686.394619
4862.78; 12.325427; 38125698.941372
4863.80; 12.289905; 38125711.451965
4864.82; 12.215809; 38125723.887131
4865.83; 12.111249; 38125736.215859
4866.85; 11.997393; 38125748.428687
4867.87; 11.90639; 38125760.548879
4868.89; 11.876148; 38125772.638285
4869.91; 11.942615; 38125784.795352
4870.92; 12.131042; 38125797.14423
4871.94; 12.448226; 38125809.815986
4872.96; 12.87787; 38125822.925102
4873.98; 13.380691; 38125836.546067
4875.00; 13.899868; 38125850.695533
4876.01; 14.371071; 38125865.324663
4877.03; 14.734967; 38125880.324224
4878.05; 14.949188; 38125895.541852
4879.07; 14.996659; 38125910.807804
4880.09; 14.887961; 38125925.963106
4881.10; 14.656991; 38125940.883291
4882.12; 14.351144; 38125955.492136
4883.14; 14.018888; 38125969.762759
4884.16; 13.698503; 38125983.707244
4885.17; 13.411338; 38125997.359407
4886.19; 13.161497; 38126010.757243
4887.21; 12.941563; 38126023.931196
4888.23; 12.741878; 38126036.901877
4889.25; 12.559549; 38126049.686956
4890.26; 12.403507; 38126062.313191
4891.28; 12.293403; 38126074.827344
4892.30; 12.2526; 38126087.299963
4893.32; 12.297852; 38126099.818645
4894.34; 12.429733; 38126112.471577
4895.35; 12.627748; 38126125.32608
4896.37; 12.85241; 38126138.409278
4897.39; 13.053973; 38126151.69766
4898.41; 13.185047; 38126165.119469
4899.43; 13.2129; 38126178.56963
4900.44; 13.127437; 38126191.932795
4901.46; 12.942579; 38126205.107782
4902.48; 12.691185; 38126218.02686
4903.50; 12.41592; 38126230.665731
4904.52; 12.159525; 38126243.043603
4905.53; 11.957527; 38126255.21585
4906.55; 11.834833; 38126267.263199
4907.57; 11.805678; 38126279.28087
4908.59; 11.874994; 38126291.369102
4909.61; 12.039097; 38126303.624383
4910.62; 12.284631; 38126316.129607
4911.64; 12.586452; 38126328.942073
4912.66; 12.906528; 38126342.080361
4913.68; 13.196326; 38126355.513652
4914.70; 13.40404; 38126369.158386
4915.71; 13.4859; 38126382.88645
4916.73; 13.418559; 38126396.545965
4917.75; 13.20824; 38126409.991383
4918.77; 12.892653; 38126423.115547
4919.79; 12.533839; 38126435.874454
4920.80; 12.203136; 38126448.29672
4921.82; 11.962468; 38126460.473996
4922.84; 11.847735; 38126472.534478
4923.86; 11.859659; 38126484.6071
4924.88; 11.965084; 38126496.787039
4925.89; 12.108244; 38126509.112709
4926.91; 12.22828; 38126521.56057
4927.93; 12.27731; 38126534.058342
4928.95; 12.233513; 38126546.51153
4929.97; 12.105588; 38126558.834496
4930.98; 11.928; 38126570.976685
4932.00; 11.749352; 38126582.937018
4933.02; 11.618062; 38126594.763704
4934.04; 11.569772; 38126606.541233
4935.05; 11.619691; 38126618.369577
4936.07; 11.761057; 38126630.341825
4937.09; 11.968879; 38126642.525628
4938.11; 12.206896; 38126654.951721
4939.13; 12.435396; 38126667.610418
4940.14; 12.618156; 38126680.455156
4941.16; 12.727647; 38126693.411352
4942.18; 12.748462; 38126706.388736
4943.20; 12.679172; 38126719.295585
4944.22; 12.53269; 38126732.053323
4945.23; 12.334881; 38126744.6097
4946.25; 12.121021; 38126756.948377
4947.27; 11.930033; 38126769.092636
4948.29; 11.79714; 38126781.101615
4949.31; 11.746396; 38126793.058939
4950.32; 11.785079; 38126805.055641
4951.34; 11.901766; 38126817.171126
4952.36; 12.069026; 38126829.456874
4953.38; 12.250306; 38126841.927156
4954.40; 12.409201; 38126854.559187
4955.41; 12.518469; 38126867.302449
4956.43; 12.566198; 38126880.094296
4957.45; 12.557462; 38126892.87725
4958.47; 12.511314; 38126905.613228
4959.49; 12.454418; 38126918.291288
4960.50; 12.413592; 38126930.927789
4961.52; 12.409594; 38126943.56022
4962.54; 12.453691; 38126956.237541
4963.56; 12.547381; 38126969.010233
4964.58; 12.68437; 38126981.922374
4965.59; 12.853347; 38126995.006527
4966.61; 13.040138; 38127008.280825
4967.63; 13.2286; 38127021.746969
4968.65; 13.400586; 38127035.388187
4969.67; 13.53606; 38127049.167312
4970.68; 13.614528; 38127063.026314
4971.70; 13.618429; 38127076.889287
4972.72; 13.537995; 38127090.670382
4973.74; 13.376161; 38127104.286736
4974.76; 13.151461; 38127117.674356
4975.77; 12.897221; 38127130.80317
4976.79; 12.656343; 38127143.686782
4977.81; 12.472492; 38127156.383241
4978.83; 12.379869; 38127168.985413
4979.84; 12.394451; 38127181.602429
4980.86; 12.509353; 38127194.33641
4981.88; 12.69583; 38127207.260217
4982.90; 12.909765; 38127220.401801
4983.92; 13.101896; 38127233.738966
4984.93; 13.228979; 38127247.205495
4985.95; 13.262939; 38127260.706595
4986.97; 13.195839; 38127274.139389
4987.99; 13.039763; 38127287.413305
4989.01; 12.822208; 38127300.46576
4990.02; 12.578635; 38127313.270268
4991.04; 12.344344; 38127325.836277
4992.06; 12.147646; 38127338.202057
4993.08; 12.005678; 38127350.423319
4994.10; 11.923298; 38127362.560722
4995.11; 11.894759; 38127374.669073
4996.13; 11.907287; 38127386.790178
4997.15; 11.945455; 38127398.950136
4998.17; 11.995252; 38127411.160785
