#Wavenumber (cm^-1); Spectrum (K*cm*km*mol^-1); Integral (K*km*mol^-1)
0.00; 13.126121; 13.361825245633
1.02; 13.639561; 27.246309456014
2.04; 15.115881; 42.63362416204
3.05; 17.378807; 60.324499796476
4.07; 20.182051; 80.868956787336
5.09; 23.265269; 104.55199650185
6.11; 26.407478; 131.43366911134
7.13; 29.463954; 161.42670334547
8.14; 32.379294; 194.38742712521
9.16; 35.17757; 230.19667567568
10.18; 37.937287; 268.81519627115
11.20; 40.761709; 310.30885703303
12.22; 43.753853; 354.84839180023
13.23; 47.001016; 402.69339834845
14.25; 50.568671; 454.17012365972
15.27; 54.499974; 509.64874498225
16.29; 58.816235; 569.52113415419
17.31; 63.515346; 634.17701531997
18.32; 68.567934; 703.97621352399
19.34; 73.913445; 779.21691146546
20.36; 79.459151; 860.10289837139
21.38; 85.084207; 946.71494931292
22.40; 90.648975; 1038.9916944995
23.41; 96.00804; 1136.7237359091
24.43; 101.0245; 1239.5623198456
25.45; 105.58346; 1347.0417254428
26.47; 109.60345; 1458.6133030096
27.48; 113.04536; 1573.688599285
28.50; 115.91836; 1691.6884917563
29.52; 118.2816; 1812.0940556414
30.54; 120.23985; 1934.493034421
31.56; 121.93166; 2058.6141995383
32.57; 123.50995; 2184.3419949859
33.59; 125.11807; 2311.7067952194
34.61; 126.86695; 2440.8518747452
35.63; 128.82026; 2571.985338666
36.65; 130.99365; 2705.3312241436
37.66; 133.36992; 2841.096050195
38.68; 135.92677; 2979.4636361836
39.70; 138.66866; 3120.6223472745
40.72; 141.6515; 3264.8174573172
41.74; 144.98978; 3412.4107991325
42.75; 148.84058; 3563.9240905271
43.77; 153.36567; 3720.0437248516
44.79; 158.68045; 3881.5735744945
45.81; 164.80335; 4049.3362696612
46.83; 171.62056; 4224.0385910151
47.84; 178.87801; 4406.1286854283
48.86; 186.20587; 4595.6782243947
49.88; 193.1726; 4792.3195990366
50.90; 199.35777; 4995.2572065947
51.92; 204.42723; 5203.3553037519
52.93; 208.19292; 5415.2867133577
53.95; 210.64221; 5629.7113932031
54.97; 211.92865; 5845.4456167293
55.99; 212.32565; 6061.5839699725
57.01; 212.15438; 6277.5479721292
58.02; 211.70507; 6493.054595905
59.04; 211.17386; 6708.0204775762
60.06; 210.63399; 6922.4367951924
61.08; 210.05081; 7136.2594583416
62.10; 209.33693; 7349.3554176004
63.11; 208.43034; 7561.5285073141
64.13; 207.36954; 7772.6217518359
65.15; 206.33861; 7982.6655538579
66.17; 205.66327; 8192.0218882985
67.19; 205.75421; 8401.4708000407
68.20; 207.01153; 8612.1996052309
69.22; 209.7181; 8825.683586361
70.24; 213.95525; 9043.4807939718
71.26; 219.56809; 9266.9916382297
72.27; 226.19333; 9497.2466857921
73.29; 233.3422; 9734.7789748779
74.31; 240.51465; 9979.612506072
75.33; 247.31117; 10231.364608835
76.35; 253.51096; 10489.427827326
77.36; 259.09654; 10753.176923196
78.38; 264.22255; 11022.144075781
79.40; 269.14265; 11296.119677688
80.42; 274.11916; 11575.161148798
81.44; 279.34182; 11859.519067378
82.45; 284.87592; 12149.51046404
83.47; 290.64893; 12445.378533929
84.49; 296.47359; 12747.175858353
85.51; 302.09702; 13054.697584973
86.53; 307.26148; 13367.476515227
87.54; 311.76297; 13684.837762133
88.56; 315.49586; 14005.99893345
89.58; 318.47567; 14330.193422584
90.60; 320.8349; 14656.789505965
91.62; 322.79132; 14985.377139269
92.63; 324.59309; 15315.798894342
93.65; 326.45159; 15648.112522811
94.67; 328.47872; 15982.489685573
95.69; 330.64808; 16319.075159391
96.71; 332.79619; 16657.847322455
97.72; 334.67005; 16998.526989674
98.74; 336.01208; 17340.572784506
99.76; 336.65901; 17683.277132533
100.78; 336.62192; 18025.943716534
101.80; 336.11646; 18368.095772552
102.81; 335.52623; 18709.647000296
103.83; 335.30349; 19050.971482221
104.85; 335.83459; 19392.836598425
105.87; 337.31178; 19736.205438972
106.89; 339.65367; 20081.95822086
107.90; 342.50172; 20430.610192198
108.92; 345.29535; 20782.105960279
109.94; 347.40184; 21135.746044119
110.96; 348.26007; 21490.259769678
111.98; 347.49538; 21843.995075949
112.99; 344.97661; 22195.166377681
114.01; 340.80986; 22542.096107342
115.03; 335.28673; 22883.403534136
116.05; 328.8177; 23218.12576148
117.07; 321.87945; 23545.785150907
118.08; 314.98995; 23866.43132843
119.10; 308.70418; 24180.678860844
120.12; 303.60793; 24489.738636221
121.14; 300.28444; 24795.415240028
122.15; 299.24096; 25100.029620228
123.17; 300.8051; 25406.236232877
124.19; 305.02272; 25716.736196675
125.21; 311.59946; 26033.931001161
126.23; 319.92068; 26359.596449721
127.24; 329.15925; 26694.666365344
128.26; 338.44808; 27039.19190552
129.28; 347.06645; 27392.490580022
130.30; 354.5795; 27753.437214654
131.32; 360.8834; 28120.800943487
132.33; 366.14211; 28493.517809096
133.35; 370.64188; 28870.815251603
134.37; 374.62166; 29252.163933941
135.39; 378.14741; 29637.10167756
136.41; 381.08165; 30025.0263535
137.42; 383.16107; 30415.067785301
138.44; 384.15037; 30806.116280771
139.46; 384.00684; 31197.018676988
140.48; 382.9816; 31586.877418111
141.50; 381.60463; 31975.334461644
142.51; 380.54494; 32362.712786605
143.53; 380.38713; 32749.930467435
144.55; 381.40323; 33138.182493915
145.57; 383.40795; 33528.475244812
146.59; 385.76192; 33921.164232667
147.60; 387.53811; 34315.661302914
148.62; 387.80892; 34710.434047285
149.64; 385.96513; 35103.329895772
150.66; 381.96069; 35492.149400002
151.68; 376.39568; 35875.303955899
152.69; 370.39846; 36252.353608787
153.71; 365.33182; 36624.245634284
154.73; 362.40492; 36993.158199927
155.75; 362.30632; 37361.970396403
156.77; 364.97012; 37733.494233555
157.78; 369.55029; 38109.680485117
158.80; 374.61753; 38491.024965104
159.82; 378.52805; 38876.350183236
160.84; 379.86316; 39263.034483319
161.86; 377.81781; 39647.636712393
162.87; 372.43044; 40026.754828126
163.89; 364.59066; 40397.892382709
164.91; 355.82292; 40760.10476261
165.93; 347.90471; 41114.256741421
166.94; 342.42105; 41462.826592635
167.96; 340.37192; 41809.310518039
168.98; 341.93178; 42157.382311816
170.00; 346.41789; 42510.020770877
171.02; 352.46795; 42868.817934581
172.03; 358.37397; 43233.62716685
173.05; 362.48196; 43602.618162332
174.07; 363.55564; 43972.702111702
175.09; 361.01732; 44340.20216551
176.11; 355.01673; 44701.593873918
177.12; 346.32525; 45054.138033442
178.14; 336.09818; 45396.271477257
179.16; 325.57728; 45727.695102802
180.18; 315.81486; 46049.181002707
181.20; 307.48681; 46362.189305114
182.21; 300.83163; 46668.422928088
183.23; 295.71425; 46969.4472786
184.25; 291.77881; 47266.465514247
185.27; 288.63299; 47560.281443151
186.29; 286.00289; 47851.420045642
187.30; 283.81217; 48140.328588671
188.32; 282.16734; 48427.562760083
189.34; 281.26322; 48713.876580928
190.36; 281.24935; 49000.176287872
191.38; 282.11059; 49287.352696547
192.39; 283.60993; 49576.055368261
193.41; 285.31953; 49866.498339382
194.43; 286.73421; 50158.381393889
195.45; 287.43088; 50450.973628956
196.47; 287.21793; 50743.349087641
197.48; 286.21818; 51034.706845608
198.50; 284.84906; 51324.670899103
199.52; 283.69824; 51613.46346902
200.54; 283.33107; 51901.882275753
201.56; 284.09387; 52191.077579051
202.57; 285.98391; 52482.196854101
203.59; 288.63837; 52776.018262364
204.61; 291.45592; 53072.707812666
205.63; 293.81752; 53371.801367104
206.65; 295.33551; 53672.440169496
207.66; 296.04453; 53973.80072577
208.68; 296.46277; 54275.58703655
209.70; 297.49305; 54578.422121647
210.72; 300.18712; 54883.999654051
211.74; 305.44499; 55194.929477392
212.75; 313.74586; 55514.309220975
213.77; 324.99949; 55845.14467708
214.79; 338.56817; 56189.792466058
215.81; 353.45213; 56549.591478768
216.82; 368.57654; 56924.786496321
217.84; 383.08441; 57314.749898641
218.86; 396.53893; 57718.409413294
219.88; 408.97228; 58134.725551254
220.90; 420.77252; 58563.053823934
221.91; 432.45679; 59003.276179502
222.93; 444.41828; 59455.674810548
223.95; 456.74069; 59920.617124863
224.97; 469.1471; 60398.188628765
225.99; 481.09882; 60887.926462291
227.00; 492.00379; 61388.765085433
228.02; 501.45311; 61899.222708286
229.04; 509.39336; 62417.7631706
230.06; 516.16591; 62943.197793583
231.08; 522.39308; 63474.971408517
232.09; 528.74843; 64013.21449621
233.11; 535.69249; 64558.526336678
234.13; 543.27116; 65111.552932621
235.15; 551.0546; 65672.502731351
236.17; 558.24666; 66240.773743722
237.18; 563.93501; 66814.835245426
238.20; 567.40086; 67392.424832501
239.22; 568.38331; 67971.014520046
240.24; 567.20442; 68548.404143431
241.26; 564.70491; 69123.249371173
242.27; 562.00208; 69695.343237735
243.29; 560.13985; 70265.541434248
244.31; 559.73747; 70835.330021101
245.33; 560.74585; 71406.145097647
246.35; 562.38849; 71978.632316855
247.36; 563.3086; 72552.056165744
248.38; 561.8835; 73124.029325726
249.40; 556.62069; 73690.645168591
250.42; 546.5301; 74246.989225568
251.44; 531.37885; 74787.909968171
252.45; 511.77116; 75308.870930203
253.47; 489.04455; 75806.6971833
254.49; 465.01874; 76280.066198132
255.51; 441.6637; 76729.660785371
256.53; 420.7628; 77157.979162193
257.54; 403.63761; 77568.864826522
258.56; 390.97846; 77966.864032097
259.58; 382.79879; 78356.536677605
260.60; 378.50612; 78741.839573438
261.61; 377.06481; 79125.675282544
262.63; 377.21309; 79509.661931126
263.65; 377.69195; 79894.136035445
264.67; 377.44403; 80278.357771188
265.69; 375.74799; 80660.853010157
266.70; 372.2683; 81039.80607155
267.72; 367.02082; 81413.417424624
268.74; 360.27648; 81780.163330056
269.76; 352.44257; 82138.934660893
270.78; 343.96653; 82489.077741818
271.79; 335.29592; 82830.39451818
272.81; 326.90313; 83163.16780086
273.83; 319.35081; 83488.253146366
274.85; 313.34859; 83807.228489561
275.87; 309.74452; 84122.535044515
276.88; 309.41295; 84437.504079919
277.90; 313.04115; 84756.166464167
278.92; 320.86588; 85082.794085643
279.94; 332.44931; 85421.213135911
280.96; 346.59215; 85774.02898732
281.97; 361.45261; 86141.97214573
282.99; 374.87751; 86523.581271658
284.01; 384.87676; 86915.369200652
285.03; 390.11139; 87312.485757812
286.05; 390.24363; 87709.73692898
287.06; 386.02758; 88102.696345508
288.08; 379.09492; 88488.598611242
289.10; 371.48767; 88866.757032927
290.12; 365.07609; 89238.388736346
291.14; 361.04198; 89605.913889313
292.15; 359.59031; 89971.961312553
293.17; 359.97759; 90338.402968041
294.19; 360.8402; 90705.722725688
295.21; 360.70594; 91072.905805983
296.23; 358.51209; 91437.855639333
297.24; 353.9555; 91798.167067377
298.26; 347.56193; 92151.970117038
299.28; 340.46144; 92498.545174253
300.30; 333.95809; 92838.500103113
301.32; 329.04959; 93173.458382437
302.33; 326.06399; 93505.377450686
303.35; 324.53406; 93835.739118143
304.37; 323.34382; 94164.889169305
305.39; 321.08852; 94491.743427688
306.41; 316.52096; 94813.948104003
307.42; 308.93544; 95128.431055305
308.44; 298.37089; 95432.159746222
309.46; 285.58133; 95722.869218488
310.48; 271.80121; 95999.551122886
311.49; 258.39562; 96262.586711101
312.51; 246.51317; 96513.52648033
313.53; 236.84548; 96754.624957631
314.55; 229.55098; 96988.297947143
315.57; 224.34127; 97216.667676946
316.58; 220.67633; 97441.306656566
317.60; 217.9873; 97663.208319673
318.62; 215.84854; 97882.932819854
319.64; 214.0497; 98100.826173827
320.66; 212.56075; 98317.203846622
321.67; 211.42298; 98532.423319168
322.69; 210.62263; 98746.828067819
323.71; 210.00557; 98960.604679834
324.73; 209.27126; 99173.633789573
325.75; 208.05109; 99385.420819914
326.76; 206.04246; 99595.163157153
327.78; 203.14647; 99801.957499221
328.80; 199.55306; 100005.09389888
329.82; 195.7336; 100204.34225431
330.84; 192.33215; 100400.12808709
331.85; 189.9826; 100593.52217283
332.87; 189.10727; 100786.02521697
333.89; 189.76348; 100979.19624959
334.91; 191.59249; 101174.22913598
335.93; 193.89507; 101371.60594992
336.94; 195.81699; 101570.9391955
337.96; 196.59153; 101771.06088824
338.98; 195.76577; 101970.34199379
340.00; 193.34094; 102167.15473259
341.02; 189.78341; 102360.34605702
342.03; 185.9033; 102549.58759863
343.05; 182.63889; 102735.50610743
344.07; 180.81256; 102919.56548684
345.09; 180.93017; 103103.74459678
346.11; 183.07859; 103290.11070436
347.12; 186.94293; 103480.41053751
348.14; 191.92828; 103675.78524606
349.16; 197.34179; 103876.67067242
350.18; 202.57874; 104082.88709303
351.20; 207.26278; 104293.87165633
352.21; 211.30988; 104508.97599953
353.23; 214.91115; 104727.74627696
354.25; 218.45074; 104950.11970736
355.27; 222.38865; 105176.50175363
356.28; 227.14044; 105407.72092006
357.30; 232.98139; 105644.88592595
358.32; 239.99305; 105889.18849411
359.34; 248.0602; 106141.70307208
360.36; 256.91627; 106403.23274608
361.37; 266.22545; 106674.23876434
362.39; 275.6809; 106954.87002264
363.41; 285.09141; 107245.08077628
364.43; 294.42732; 107544.79508509
365.45; 303.80332; 107854.05375326
366.46; 313.39237; 108173.07366633
367.48; 323.28855; 108502.1674628
368.50; 333.35968; 108841.51323021
369.52; 343.14468; 109190.81971065
370.54; 351.84683; 109548.98459623
371.55; 358.45026; 109913.87149482
372.57; 361.94877; 110282.31972126
373.59; 361.63348; 110650.44700061
374.61; 357.35657; 111014.22056985
375.63; 349.68226; 111370.18202384
376.64; 339.86083; 111716.14568765
377.66; 329.60963; 112051.6740648
378.68; 320.74348; 112378.17708533
379.70; 314.74637; 112698.57531142
380.72; 312.39971; 113016.58473126
381.73; 313.57174; 113335.78723627
382.75; 317.2302; 113658.71388936
383.77; 321.67819; 113986.16840472
384.79; 324.95235; 114316.95587533
385.81; 325.2787; 114648.0755555
386.82; 321.46954; 114975.3176743
387.84; 313.16525; 115294.10638792
388.86; 300.87072; 115600.37979644
389.88; 285.79254; 115891.3042721
390.90; 269.53383; 116165.67807896
391.91; 253.7342; 116423.96855
392.93; 239.7475; 116668.02116094
393.95; 228.42915; 116900.55218167
394.97; 220.06801; 117124.57192359
395.99; 214.45507; 117342.87792604
397.00; 211.04656; 117557.71421804
398.02; 209.16068; 117770.63076866
399.04; 208.14831; 117982.51676565
400.06; 207.49745; 118193.74021625
401.07; 206.85984; 118404.31461003
402.09; 206.01676; 118614.03077798
403.11; 204.82004; 118822.5287433
404.13; 203.14787; 119029.32450441
405.15; 200.9022; 119233.83426966
406.16; 198.0524; 119435.44306632
407.18; 194.70516; 119633.64451952
408.20; 191.16509; 119828.24233007
409.22; 187.94929; 120019.56659459
410.24; 185.73376; 120208.63555064
411.25; 185.23448; 120397.19625625
412.27; 187.05204; 120587.60716256
413.29; 191.52584; 120782.57220312
414.31; 198.64431; 120984.7835356
415.33; 208.0418; 121196.56110711
416.34; 219.08489; 121419.58007336
417.36; 231.0217; 121654.75019097
418.38; 243.14742; 121902.26377617
419.40; 254.93553; 122161.77714809
420.42; 266.0969; 122432.65231049
421.43; 276.55506; 122714.17343185
422.45; 286.35404; 123005.66948551
423.47; 295.53681; 123306.51320216
424.49; 304.04044; 123616.01325063
425.51; 311.64609; 123933.25552083
426.52; 318.00252; 124256.96836332
427.54; 322.71729; 124585.4806402
428.56; 325.48804; 124916.81342206
429.58; 326.23367; 125248.90522215
430.60; 325.18419; 125579.92869969
431.61; 322.89809; 125908.62502283
432.63; 320.19385; 126234.56854584
433.65; 318.0037; 126558.28258645
434.67; 317.17754; 126881.15563696
435.69; 318.27988; 127205.15082482
436.70; 321.42832; 127532.35098249
437.72; 326.21746; 127864.42627766
438.74; 331.75612; 128202.1396931
439.76; 336.82076; 128545.0086876
440.78; 340.09935; 128891.21514621
441.79; 340.47453; 129237.80352782
442.81; 337.27993; 129581.13994416
443.83; 330.46539; 129917.53945445
444.85; 320.6263; 130243.92318728
445.87; 308.88512; 130558.3549082
446.88; 296.65149; 130860.33332475
447.90; 285.31889; 131150.7756474
448.92; 275.97269; 131431.70393324
449.94; 269.18026; 131705.71782675
450.95; 264.91144; 131975.38624202
451.97; 262.60255; 132242.70430986
452.99; 261.34176; 132508.73893933
454.01; 260.12502; 132773.53498355
455.03; 258.11914; 133036.2891261
456.04; 254.87085; 133295.73664965
457.06; 250.41739; 133550.65074818
458.08; 245.27787; 133800.3330316
459.10; 240.33084; 134044.97946029
460.12; 236.60724; 134285.83542065
461.13; 235.04482; 134525.10090638
462.15; 236.2599; 134765.60328863
463.17; 240.3905; 135010.31044699
464.19; 247.05252; 135261.79924782
465.21; 255.42611; 135521.81200069
466.22; 264.45775; 135791.01857771
467.24; 273.13045; 136069.05358473
468.26; 280.7309; 136354.82552922
469.28; 287.03735; 136647.01716778
470.30; 292.36995; 136944.63716064
471.31; 297.48515; 137247.46421139
472.33; 303.34487; 137556.25620284
473.35; 310.83385; 137872.6716516
474.37; 320.51835; 138198.94550411
475.39; 332.52601; 138537.44263182
476.40; 346.58333; 138890.24951017
477.42; 362.18835; 139258.94162508
478.44; 378.84354; 139644.58799679
479.46; 396.25009; 140047.95348502
480.48; 414.3801; 140469.77454251
481.49; 433.39397; 140910.95090648
482.51; 453.43765; 141372.53087239
483.53; 474.41017; 141855.45994868
484.55; 495.8124; 142360.17558031
485.57; 516.76173; 142886.21672687
486.58; 536.19192; 143432.03696549
487.60; 553.17901; 143995.14932848
488.62; 567.27327; 144572.60903891
489.64; 578.70182; 145161.70252152
490.66; 588.34566; 145760.61301131
491.67; 597.47564; 146368.81743045
492.69; 607.32457; 146987.04763779
493.71; 618.63972; 147616.79617455
494.73; 631.37473; 148259.50840152
495.74; 644.63404; 148915.71803421
496.76; 656.89318; 149584.40694592
497.78; 666.41933; 150262.79306529
498.80; 671.7462; 150946.60171376
499.82; 672.04329; 151630.71278671
500.83; 667.26566; 152309.96043982
501.85; 658.05795; 152979.8350399
502.87; 645.47852; 153636.90431558
503.89; 630.67024; 154278.89940256
504.91; 614.60996; 154904.54582136
505.92; 598.01923; 155513.30358819
506.94; 581.43801; 156105.18238891
507.96; 565.38641; 156680.72135248
508.98; 550.50014; 157241.10674357
510.00; 537.54089; 157788.30017021
511.01; 527.24507; 158325.01290342
512.03; 520.05731; 158854.40880528
513.05; 515.86025; 159379.53228107
514.07; 513.83233; 159902.59141867
515.09; 512.52736; 160424.32215179
516.10; 510.18894; 160943.6724798
517.12; 505.21972; 161457.96435355
518.14; 496.65774; 161963.54050063
519.16; 484.49749; 162456.73803708
520.18; 469.73814; 162934.91119554
521.19; 454.13057; 163397.19651636
522.21; 439.69482; 163844.78686713
523.23; 428.15516; 164280.63034693
524.25; 420.46419; 164708.64475206
525.27; 416.55467; 165132.67943004
526.28; 415.38167; 165555.52004539
527.30; 415.22662; 165978.20282403
528.32; 414.15984; 166399.79966835
529.34; 410.5222; 166817.69355478
530.36; 403.29598; 167228.23146306
531.37; 392.28169; 167627.55729605
532.39; 378.06138; 168012.40746407
533.41; 361.78835; 168380.69239139
534.43; 344.88138; 168731.766752
535.45; 328.71211; 169066.38149579
536.46; 314.36002; 169386.38642935
537.48; 302.4794; 169694.29741086
538.50; 293.28842; 169992.85236372
539.52; 286.65978; 170284.65964675
540.54; 282.27225; 170572.00061967
541.55; 279.77298; 170856.79743853
542.57; 278.90352; 171140.70918725
543.59; 279.55606; 171425.28518975
544.61; 281.74755; 171712.09203732
545.62; 285.52521; 172002.7443842
546.64; 290.83938; 172298.80632365
547.66; 297.43293; 172601.58021559
548.68; 304.79416; 172911.84751602
549.70; 312.20088; 173229.65453783
550.71; 318.85308; 173554.23320908
551.73; 324.05895; 173884.11124096
552.75; 327.41784; 174217.40847179
553.77; 328.94137; 174552.25659611
554.79; 329.07425; 174887.23998507
555.80; 328.61003; 175221.75081925
556.82; 328.53349; 175556.18373324
557.84; 329.84385; 175891.95054304
558.86; 333.41449; 176231.35210295
559.88; 339.92384; 176577.37989904
560.89; 349.86008; 176933.52236454
561.91; 363.57173; 177303.62269681
562.93; 381.32188; 177691.79191134
563.95; 403.31; 178102.34409278
564.97; 429.64739; 178539.70660068
565.98; 460.29815; 179008.270259
567.00; 495.01439; 179512.17354259
568.02; 533.29298; 180055.04278457
569.04; 574.36516; 180639.72173576
570.06; 617.20866; 181268.01352244
571.07; 660.56014; 181940.43524362
572.09; 702.91117; 182655.96848694
573.11; 742.49382; 183411.79515965
574.13; 777.28959; 184203.04242209
575.15; 805.11119; 185022.61087143
576.16; 823.79662; 185861.20028156
577.18; 831.51727; 186707.64898025
578.20; 827.14902; 187549.65099102
579.22; 810.61031; 188374.81730494
580.24; 783.05684; 189171.93538088
581.25; 746.85092; 189932.19738613
582.27; 705.28705; 190650.14917311
583.29; 662.13179; 191324.1707587
584.31; 621.09215; 191956.41576288
585.33; 585.34136; 192552.26800739
586.34; 557.19579; 193119.46927459
587.36; 537.97249; 193667.10205033
588.38; 527.99432; 194204.57748636
589.40; 526.6825; 194740.71753899
590.41; 532.69905; 195282.98218727
591.43; 544.162; 195836.91562156
592.45; 559.01491; 196405.96867659
593.47; 575.64517; 196991.95062425
594.49; 593.77856; 197596.39157157
595.50; 615.53582; 198222.9804742
596.52; 646.36565; 198880.95281014
597.54; 695.44208; 199588.88284004
598.56; 775.11212; 200377.91352573
599.58; 899.14432; 201293.20364426
600.59; 1079.8485; 202392.44286363
601.61; 1324.5295; 203740.75677932
602.63; 1632.0787; 205402.14244292
603.65; 1990.6661; 207428.55464795
604.67; 2377.3832; 209848.62818429
605.68; 2760.2932; 212658.48757385
606.70; 3102.7629; 215816.96635474
607.72; 3369.3281; 219246.79694513
608.74; 3531.8733; 222842.09156413
609.76; 3574.7385; 226481.02106509
610.77; 3497.5608; 230041.38704134
611.79; 3315.1884; 233416.10580267
612.81; 3054.7107; 236525.66952505
613.83; 2750.3496; 239325.40669344
614.85; 2437.4437; 241806.61919561
615.86; 2146.9104; 243992.08134234
616.88; 1901.3471; 245927.57064469
617.90; 1713.4266; 247671.76499421
618.92; 1586.5959; 249286.85118228
619.94; 1517.5014; 250831.60215729
620.95; 1499.1916; 252357.71453282
621.97; 1524.0785; 253909.16071447
622.99; 1585.8627; 255523.50049238
624.01; 1680.0508; 257233.71969313
625.03; 1803.1787; 259069.27781806
626.04; 1951.2467; 261055.56278826
627.06; 2118.074; 263211.67074181
628.08; 2294.246; 265547.11413025
629.10; 2467.0922; 268058.5075409
630.12; 2621.7863; 270727.37288402
631.13; 2743.3089; 273519.94297197
632.15; 2818.7678; 276389.32691966
633.17; 2839.4821; 279279.79718813
634.19; 2802.3233; 282132.44133746
635.21; 2710.0214; 284891.1261879
636.22; 2570.426; 287507.70890647
637.24; 2394.9615; 289945.67635878
638.26; 2196.6885; 292181.81045705
639.28; 1988.4203; 294205.93653694
640.29; 1781.2674; 296019.18991014
641.31; 1583.8152; 297631.44543497
642.33; 1401.9467; 299058.56665742
643.35; 1239.1574; 300319.97543345
644.37; 1097.1193; 301436.79553192
645.38; 976.25145; 302430.57737667
646.40; 876.13468; 303322.44467873
647.42; 795.72383; 304132.45720318
648.44; 733.42075; 304879.04787739
649.46; 687.12891; 305578.51546071
650.47; 654.39905; 306244.6654514
651.49; 632.70511; 306888.73195003
652.51; 619.79682; 307519.65837127
653.53; 614.00502; 308144.68898933
654.55; 614.36699; 308770.08807306
655.56; 620.50144; 309401.7317597
656.58; 632.27455; 310045.35996317
657.60; 649.41072; 310706.43205632
658.62; 671.25916; 311389.74491813
659.64; 696.89235; 312099.15125839
660.65; 725.58565; 312837.76614383
661.67; 757.55057; 313608.91993719
662.69; 794.63965; 314417.82880907
663.71; 840.68089; 315273.60568012
664.73; 901.17533; 316190.9632825
665.74; 982.29186; 317190.8940068
666.76; 1089.3535; 318299.80884135
667.78; 1225.2309; 319547.04100024
668.80; 1389.1497; 320961.13542097
669.82; 1576.3289; 322565.77019207
670.83; 1778.6176; 324376.32620309
671.85; 1985.9701; 326397.95807185
672.87; 2188.3118; 328625.56507784
673.89; 2377.2163; 331045.46873866
674.91; 2546.8807; 333638.08342833
675.92; 2694.1435; 336380.60527188
676.94; 2817.6343; 339248.83535898
677.96; 2916.4527; 342217.65838267
678.98; 2988.9328; 345260.26298761
680.00; 3031.996; 348346.7041207
681.01; 3041.3654; 351442.68282422
682.03; 3012.5819; 354509.36124412
683.05; 2942.4733; 357504.6721087
684.07; 2830.5631; 360386.0631953
685.08; 2679.9431; 363114.12959578
686.10; 2497.324; 365656.29762957
687.12; 2292.2585; 367989.71791338
688.14; 2075.7852; 370102.77771025
689.16; 1858.8851; 371995.04250356
690.17; 1651.1434; 373675.83521829
691.19; 1459.8828; 375161.9329489
692.21; 1289.8513; 376474.94586684
693.23; 1143.3815; 377638.85886033
694.25; 1020.8467; 378678.03679853
695.26; 921.22817; 379615.80732278
696.28; 842.66494; 380473.60387096
697.30; 782.93019; 381270.59301962
698.32; 739.82133; 382023.69920722
699.34; 711.45979; 382747.93457587
700.35; 696.47234; 383456.91335941
701.37; 694.00711; 384163.3826477
702.39; 703.55257; 384879.56880311
703.41; 724.58487; 385617.16493451
704.43; 756.15019; 386386.89320162
705.44; 796.55155; 387197.7483099
706.46; 843.31316; 388056.20472102
707.48; 893.51922; 388965.76873229
708.50; 944.48407; 389927.21276266
709.52; 994.55707; 390939.62894038
710.53; 1043.7636; 392002.135216
711.55; 1093.9871; 393115.76683502
712.57; 1148.5217; 394284.91236824
713.59; 1211.0377; 395517.69648633
714.61; 1284.2298; 396824.98696617
715.62; 1368.576; 398218.1382902
716.64; 1461.6525; 399706.03744021
717.66; 1558.3079; 401292.32767688
718.68; 1651.7428; 402973.73058573
719.70; 1735.2389; 404740.12890375
720.71; 1804.0554; 406576.57942794
721.73; 1856.923; 408466.84686659
722.75; 1896.6642; 410397.56918015
723.77; 1929.7161; 412361.93692875
724.79; 1964.6507; 414361.8665283
725.80; 2010.078; 416408.03916708
726.82; 2072.4869; 418517.74144748
727.84; 2154.5797; 420711.01063628
728.86; 2254.5012; 423005.99553206
729.88; 2366.1075; 425414.59089982
730.89; 2480.1456; 427939.27206638
731.91; 2586.0027; 430571.71122866
732.93; 2673.5945; 433293.31503141
733.95; 2734.9836; 436077.41029416
734.96; 2765.4488; 438892.51783609
735.98; 2763.8879; 441706.03648206
737.00; 2732.5938; 444487.6990761
738.02; 2676.5487; 447212.31015146
739.04; 2602.4274; 449861.46890722
740.05; 2517.4953; 452424.17045935
741.07; 2428.5562; 454896.33588214
742.09; 2341.0692; 457279.44329898
743.11; 2258.527; 459578.52634134
744.13; 2182.1677; 461799.87894439
745.14; 2111.0645; 463948.85152042
746.16; 2042.5958; 466028.12591063
747.18; 1973.2357; 468036.79470032
748.20; 1899.53; 469970.43424549
749.22; 1819.063; 471822.16191082
750.23; 1731.1957; 473584.44440503
751.25; 1637.3859; 475251.23259856
752.27; 1540.994; 476819.89804398
753.29; 1446.6037; 478292.47819017
754.31; 1359.0235; 479675.90544962
755.32; 1282.2311; 480981.16136319
756.34; 1218.545; 482221.58757619
757.36; 1168.2474; 483410.81306726
758.38; 1129.7501; 484560.84993834
759.40; 1100.2303; 485680.83689051
760.41; 1076.5254; 486776.69329917
761.43; 1056.0035; 487851.65931157
762.45; 1037.152; 488907.43532803
763.47; 1019.7383; 489945.48491078
764.49; 1004.5507; 490968.07422479
765.50; 992.87203; 491978.77510392
766.52; 985.91156; 492982.39052344
767.54; 984.40913; 493984.47653432
768.56; 988.52354; 494990.75084122
769.58; 997.98617; 496006.6576935
770.59; 1012.3871; 497037.22411095
771.61; 1031.4196; 498087.16479832
772.63; 1054.9506; 499161.05899634
773.65; 1082.8894; 500263.39370614
774.67; 1114.9378; 501398.35222414
775.68; 1150.3666; 502569.3757385
776.70; 1187.9501; 503778.65766185
777.72; 1226.0993; 505026.77379398
778.74; 1263.1272; 506312.58279887
779.75; 1297.5086; 507633.39055797
780.77; 1328.0064; 508985.24376633
781.79; 1353.6377; 510363.18853872
782.81; 1373.5817; 511761.43540395
783.83; 1387.2252; 513173.57074813
784.84; 1394.5233; 514593.13531639
785.86; 1396.7062; 516014.92191481
786.88; 1397.1355; 517437.14556357
787.90; 1401.9146; 518864.23414012
788.92; 1419.7886; 520309.51766824
789.93; 1461.0209; 521796.77386419
790.95; 1535.271; 523359.61348001
791.97; 1648.9219; 525038.14479303
792.99; 1802.6379; 526873.15238222
794.01; 1990.0216; 528898.90853746
795.02; 2197.9984; 531136.37602266
796.04; 2409.0454; 533588.68031945
797.06; 2604.7698; 536240.22356829
798.08; 2769.8488; 539059.81012327
799.10; 2895.1849; 542006.98344236
800.11; 2979.3616; 545039.84499573
801.13; 3028.0496; 548122.26886073
802.15; 3051.6927; 551228.76033807
803.17; 3062.3412; 554346.09153951
804.19; 3070.7029; 557471.93454014
805.20; 3084.2737; 560611.59207383
806.22; 3106.9057; 563774.28802389
807.24; 3139.5759; 566970.24078441
808.26; 3181.6937; 570209.06765452
809.28; 3232.185; 573499.29252915
810.29; 3289.8373; 576848.20496914
811.31; 3352.8511; 580261.26271764
812.33; 3417.9933; 583740.63238676
813.35; 3479.9802; 587283.1020962
814.37; 3531.6293; 590878.14829023
815.38; 3564.9541; 594507.11776055
816.40; 3572.9159; 598144.19193809
817.42; 3551.1923; 601759.15245725
818.44; 3499.2616; 605321.24977869
819.46; 3420.3429; 608803.01121644
820.47; 3320.1915; 612182.8229406
821.49; 3205.2125; 615445.59094036
822.51; 3080.6223; 618581.5315017
823.53; 2949.3563; 621583.84891732
824.55; 2812.0901; 624446.43525659
825.56; 2668.2803; 627162.62947731
826.58; 2517.7206; 629725.56038992
827.60; 2361.9266; 632129.89977508
828.62; 2204.7723; 634374.26280459
829.63; 2052.1315; 636463.24416879
830.65; 1910.6911; 638408.24521621
831.67; 1786.406; 640226.72941717
832.69; 1683.1675; 641940.1213198
833.71; 1602.1127; 643571.00286753
834.72; 1541.7222; 645140.40955331
835.74; 1498.5547; 646665.87358578
836.76; 1468.2737; 648160.51284816
837.78; 1446.6037; 649633.09300827
838.80; 1429.9716; 651088.74235235
839.81; 1415.7728; 652529.93800389
840.83; 1402.3556; 653957.47553492
841.85; 1388.8726; 655371.28786753
842.87; 1375.117; 656771.09768478
843.89; 1361.3782; 658156.92195512
844.90; 1348.2811; 659529.41391508
845.92; 1336.572; 660889.98653497
846.94; 1326.8582; 662240.67095784
847.96; 1319.3789; 663583.74170778
848.98; 1313.9161; 664921.25160296
849.99; 1309.9201; 666254.69371834
851.01; 1306.8243; 667584.98447691
852.03; 1304.4207; 668912.82843076
853.05; 1303.1037; 670239.33172263
854.07; 1303.826; 671566.57028622
855.08; 1307.7271; 672897.78006233
856.10; 1315.555; 674236.95832516
857.12; 1327.1208; 675587.90999742
858.14; 1341.0478; 676953.0387469
859.16; 1354.9782; 678332.34809892
860.17; 1366.2167; 679723.09773317
861.19; 1372.6021; 681120.34747446
862.21; 1373.2863; 682518.29366172
863.23; 1369.1113; 683911.98988938
864.25; 1362.4197; 685298.87436229
865.26; 1356.3406; 686679.57057077
866.28; 1353.792; 688057.67245744
867.30; 1356.5459; 689438.57761828
868.32; 1364.6785; 690827.7614732
869.34; 1376.5935; 692229.07430348
870.35; 1389.6034; 693643.63059032
871.37; 1400.8735; 695069.65933
872.39; 1408.4206; 696503.37069225
873.41; 1411.8516; 697940.57466868
874.42; 1412.6191; 699378.55994825
875.44; 1413.7223; 700817.6682528
876.46; 1418.9453; 702262.09334784
877.48; 1431.8562; 703719.66113339
878.50; 1454.8555; 705200.64130185
879.51; 1488.5503; 706715.92130968
880.53; 1531.6384; 708275.06312835
881.55; 1581.3476; 709884.80678327
882.57; 1634.3084; 711548.46223691
883.59; 1687.6021; 713266.36830837
884.60; 1739.6576; 715037.26466344
885.62; 1790.7014; 716860.12144461
886.64; 1842.5946; 718735.80327866
887.66; 1898.091; 720667.97800832
888.68; 1959.7498; 722662.91872251
889.69; 2028.8686; 724728.21941885
890.71; 2104.8084; 726870.82350365
891.73; 2184.9542; 729095.0126389
892.75; 2265.3349; 731401.02580563
893.77; 2341.6875; 733784.76267508
894.78; 2410.6021; 736238.65158202
895.80; 2470.3623; 738753.37384986
896.82; 2521.2348; 741319.88209114
897.84; 2565.179; 743931.12361942
898.86; 2605.1747; 746583.0790066
899.87; 2644.4876; 749275.05323798
900.89; 2686.1749; 752009.46336276
901.91; 2732.9764; 754791.51542983
902.93; 2787.5213; 757629.09187455
903.95; 2852.6025; 760532.91816754
904.96; 2931.2177; 763516.77125262
905.98; 3026.1795; 766597.29138403
907.00; 3139.321; 769792.98466638
908.02; 3270.5684; 773122.28221065
909.04; 3417.3192; 776600.96567775
910.05; 3574.5507; 780239.70407356
911.07; 3735.8884; 784042.67726939
912.09; 3895.5195; 788008.14799343
913.11; 4050.4815; 792131.36337383
914.13; 4202.6069; 796409.43588842
915.14; 4359.3826; 800847.09925677
916.16; 4533.2237; 805461.72538607
917.18; 4739.1157; 810285.94068691
918.20; 4991.1109; 815366.67621759
919.22; 5298.6064; 820760.42885086
920.23; 5663.5079; 826525.6354931
921.25; 6079.2118; 832714.01078457
922.27; 6531.8323; 839363.13417963
923.29; 7003.4105; 846492.30385668
924.30; 7476.1908; 854102.74347373
925.32; 7936.6761; 862181.93728459
926.34; 8378.242; 870710.62615181
927.36; 8801.6013; 879670.27648757
928.38; 9213.2051; 889048.92172146
929.39; 9622.4453; 898844.15578242
930.41; 10038.965; 909063.38865074
931.43; 10471.277; 919722.69682689
932.45; 10927.241; 930846.15674081
933.47; 11415.968; 942467.11939781
934.48; 11949.864; 954631.56529222
935.50; 12545.152; 967401.98914641
936.52; 13219.602; 980858.97310241
937.54; 13987.283; 995097.42396378
938.56; 14851.588; 1010215.700033
939.57; 15798.879; 1026298.2768692
940.59; 16795.513; 1043395.3844306
941.61; 17790.253; 1061505.0943468
942.63; 18722.406; 1080563.6961851
943.65; 19534.024; 1100448.4893613
944.66; 20182.824; 1120993.7335847
945.68; 20651.972; 1142016.5496682
946.70; 20953.656; 1163346.4673959
947.72; 21125.457; 1184851.2707219
948.74; 21220.926; 1206453.258102
949.75; 21297.822; 1228133.5222665
950.77; 21408.106; 1249926.0506225
951.79; 21592.93; 1271906.7214204
952.81; 21883.629; 1294183.3115641
953.83; 22307.122; 1316890.9992956
954.84; 22892.115; 1340194.1840421
955.86; 23672.008; 1364291.2670353
956.88; 24681.661; 1389416.1332856
957.90; 25947.732; 1415829.8042651
958.92; 27475.268; 1443798.4411657
959.93; 29235.317; 1473558.7323928
960.95; 31158.712; 1505276.956629
961.97; 33139.646; 1539011.6857485
962.99; 35049.637; 1574690.7039169
964.01; 36759.097; 1612109.8780213
965.02; 38161.136; 1650956.2677225
966.04; 39191.458; 1690851.4805583
967.06; 39839.32; 1731406.1887686
968.08; 40147.271; 1772274.3786392
969.09; 40200.581; 1813196.8351294
970.11; 40109.887; 1854026.9695075
971.13; 39991.844; 1894736.9408414
972.15; 39952.085; 1935406.4390177
973.17; 40073.203; 1976199.2302048
974.18; 40408.347; 2017333.1836592
975.20; 40979.4; 2059048.4440275
976.22; 41778.044; 2101576.6904459
977.24; 42768.409; 2145113.0848525
978.26; 43890.945; 2189792.1726226
979.27; 45068.137; 2235669.5917296
980.29; 46212.878; 2282712.306898
981.31; 47239.728; 2330800.3111876
982.33; 48078.017; 2379741.6578484
983.35; 48684.343; 2429300.2186381
984.36; 49051.289; 2479232.3137652
985.38; 49209.44; 2529325.4004728
986.40; 49221.214; 2579430.4727462
987.42; 49167.087; 2629480.4451831
988.44; 49126.993; 2679489.6041461
989.45; 49161.135; 2729533.5186492
990.47; 49294.742; 2779713.4386449
991.49; 49510.425; 2830112.9148784
992.51; 49749.948; 2880756.2154054
993.53; 49925.009; 2931577.7205436
994.54; 49934.693; 2982409.0829785
995.56; 49685.933; 3032987.2187987
996.58; 49112.884; 3082982.0155279
997.60; 48191.448; 3132038.8299
998.62; 46946.209; 3179828.0444678
999.63; 45448.426; 3226092.580774
1000.65; 43805.357; 3270684.5439859
1001.67; 42142.817; 3313584.1128743
1002.69; 40584.281; 3354897.1599409
1003.71; 39230.737; 3394832.3571634
1004.72; 38145.52; 3433662.85041
1005.74; 37347.439; 3471680.9320813
1006.76; 36813.547; 3509155.5341939
1007.78; 36490.452; 3546301.2393144
1008.80; 36310.737; 3583264.0029254
1009.81; 36209.615; 3620123.8285682
1010.83; 36137.017; 3656909.752426
1011.85; 36061.987; 3693619.2994956
1012.87; 35969.013; 3730234.2023489
1013.89; 35848.856; 3766726.7903399
1014.90; 35688.47; 3803056.1130149
1015.92; 35464.833; 3839157.7827839
1016.94; 35145.865; 3874934.7566094
1017.96; 34698.626; 3910256.4607019
1018.97; 34101.777; 3944970.5981078
1019.99; 33357.184; 3978926.7718063
1021.01; 32495.44; 4012005.7277455
1022.03; 31572.074; 4044144.7362028
1023.05; 30654.629; 4075349.8261005
1024.06; 29804.364; 4105689.3823621
1025.08; 29058.539; 4135269.7208336
1026.10; 28419.405; 4164199.4489114
1027.12; 27853.792; 4192553.4069792
1028.14; 27303.589; 4220347.2822477
1029.15; 26703.691; 4247530.4869939
1030.17; 26001.5; 4273998.8916646
1031.19; 25171.775; 4299622.6720349
1032.21; 24222.444; 4324280.07499
1033.23; 23190.25; 4347886.7484635
1034.24; 22128.465; 4370412.5712357
1035.26; 21091.276; 4391882.5800293
1036.28; 20119.944; 4412363.8143395
1037.30; 19234.665; 4431943.8734894
1038.32; 18433.671; 4450708.5551513
1039.33; 17698.599; 4468724.9650381
1040.35; 17003.416; 4486033.7091737
1041.37; 16323.619; 4502650.4487509
1042.39; 15643.057; 4518574.4053541
1043.41; 14957.073; 4533800.0603083
1044.42; 14272.022; 4548328.3628724
1045.44; 13602.188; 4562174.8036653
1046.46; 12965.457; 4575373.0789505
1047.48; 12378.882; 4587974.2470696
1048.50; 11854.919; 4600042.042673
1049.51; 11398.71; 4611645.4375675
1050.53; 11006.729; 4622849.8124304
1051.55; 10666.994; 4633708.3523695
1052.57; 10361.038; 4644255.4414841
1053.59; 10067.482; 4654503.7036412
1054.60; 9766.6431; 4664445.7248916
1055.62; 9445.0592; 4674060.3876058
1056.64; 9098.6377; 4683322.4081433
1057.66; 8733.3351; 4692212.5664293
1058.68; 8362.9886; 4700725.7279149
1059.69; 8004.8752; 4708874.3454381
1060.71; 7674.4184; 4716686.5721697
1061.73; 7380.8196; 4724199.9280091
1062.75; 7125.0884; 4731452.9605497
1063.76; 6901.0551; 4738477.9368584
1064.78; 6698.8207; 4745297.0472743
1065.80; 6509.1798; 4751923.1114707
1066.82; 6327.2179; 4758363.9462116
1067.84; 6153.6719; 4764628.1186268
1068.85; 5993.5947; 4770729.3393556
1069.87; 5852.9791; 4776687.4195547
1070.89; 5734.8341; 4782525.2332359
1071.91; 5636.417; 4788262.8624911
1072.93; 5548.8504; 4793911.3527294
1073.94; 5459.3867; 4799468.7727648
1074.96; 5355.5255; 4804920.4666193
1075.98; 5229.4605; 4810243.8316966
1077.00; 5081.1983; 4815416.2722747
1078.02; 4919.1936; 4820423.7991182
1079.03; 4758.2567; 4825267.4991556
1080.05; 4615.4621; 4829965.840435
1081.07; 4505.4527; 4834552.1968434
1082.09; 4436.6706; 4839068.5360358
1083.11; 4409.6409; 4843557.3601512
1084.12; 4417.6703; 4848054.3578803
1085.14; 4449.5015; 4852583.7583689
1086.16; 4492.8753; 4857157.311503
1087.18; 4537.7845; 4861776.5802973
1088.20; 4578.4656; 4866437.260682
1089.21; 4613.7321; 4871133.8408182
1090.23; 4645.8749; 4875863.140993
1091.25; 4678.8107; 4880625.9684353
1092.27; 4716.3053; 4885426.9637515
1093.29; 4760.9193; 4890273.3741897
1094.30; 4813.9203; 4895173.7373175
1095.32; 4875.9575; 4900137.2516724
1096.34; 4947.9839; 4905174.0857313
1097.36; 5031.8442; 4910296.2859526
1098.38; 5130.1434; 4915518.5505508
1099.39; 5245.3637; 4920858.1044226
1100.41; 5378.5636; 4926333.2500263
1101.43; 5528.2104; 4931960.7296819
1102.45; 5689.6765; 4937752.5747953
1103.47; 5855.6798; 4943713.4041322
1104.48; 6017.5799; 4949839.0407919
1105.50; 6167.099; 4956116.8814393
1106.52; 6297.8832; 4962527.8547415
1107.54; 6406.4086; 4969049.3022266
1108.56; 6492.0386; 4975657.9173805
1109.57; 6556.415; 4982332.0649048
1110.59; 6602.6461; 4989053.2736676
1111.61; 6634.8062; 4995807.2200749
1112.63; 6658.0503; 5002584.8280009
1113.64; 6679.2696; 5009384.0361876
1114.66; 6707.85; 5016212.338052
1115.68; 6755.9362; 5023089.5896103
1116.70; 6837.7513; 5030050.1253547
1117.72; 6967.9504; 5037143.198137
1118.73; 7159.502; 5044431.2622512
1119.75; 7421.9479; 5051986.4849341
1120.77; 7760.8726; 5059886.7183808
1121.79; 8178.9579; 5068212.5445567
1122.81; 8678.2344; 5077046.6126821
1123.82; 9262.3966; 5086475.3327339
1124.84; 9937.6624; 5096591.4442192
1125.86; 10710.908; 5107494.6864471
1126.88; 11584.704; 5119287.4153287
1127.90; 12550.163; 5132062.9398914
1128.91; 13579.722; 5145886.5107626
1129.93; 14622.601; 5160771.6878096
1130.95; 15605.389; 5176657.3008236
1131.97; 16438.938; 5193391.4300676
1132.99; 17030.903; 5210728.1547077
1134.00; 17301.409; 5228340.2422236
1135.02; 17198.075; 5245847.1407384
1136.04; 16706.578; 5262853.7161444
1137.06; 15853.959; 5278992.3620474
1138.08; 14703.885; 5293960.2819994
1139.09; 13345.215; 5307545.1349188
1140.11; 11876.953; 5319635.36012
1141.13; 10393.343; 5330215.3352004
1142.15; 8972.4277; 5339348.879462
1143.17; 7669.9504; 5347156.5580072
1144.18; 6518.7654; 5353792.3799371
1145.20; 5532.3438; 5359424.067242
1146.22; 4710.1838; 5364218.8310795
1147.24; 4042.9977; 5368334.4282884
1148.26; 3516.3327; 5371913.9032459
1149.27; 3112.3571; 5375082.1484346
1150.29; 2810.4527; 5377943.0679643
1151.31; 2587.6579; 5380577.1920715
1152.33; 2419.8296; 5383040.4741779
1153.35; 2283.8003; 5385365.2843516
1154.36; 2160.1258; 5387564.1992524
1155.38; 2035.5603; 5389636.3117518
1156.40; 1904.3603; 5391574.8684034
1157.42; 1767.8914; 5393374.5055344
1158.43; 1632.6034; 5395036.425329
1159.45; 1507.01; 5396570.4964499
1160.47; 1398.6056; 5397994.21658
1161.49; 1311.6053; 5399329.3741266
1162.51; 1246.0358; 5400597.7847939
1163.52; 1198.2144; 5401817.5153416
1164.54; 1162.216; 5403000.6010659
1165.56; 1131.7004; 5404152.6232418
1166.58; 1101.4898; 5405273.8923025
1167.60; 1068.5005; 5406361.5797225
1168.61; 1031.9257; 5407412.035532
1169.63; 992.81286; 5408422.6761811
1170.65; 953.31476; 5409393.1094731
1171.67; 915.89242; 5410325.4484383
1172.69; 882.66681; 5411223.9651606
1173.70; 855.00453; 5412094.3228788
1174.72; 833.33872; 5412942.625738
1175.74; 817.18629; 5413774.486117
1176.76; 805.3179; 5414594.264986
1177.78; 796.04229; 5415404.6016817
1178.79; 787.56223; 5416206.3060509
1179.81; 778.34231; 5416998.624931
1180.83; 767.41107; 5417779.816283
1181.85; 754.52139; 5418547.8865037
1182.87; 740.12219; 5419301.2989516
1183.88; 725.14856; 5420039.4688902
1184.90; 710.69596; 5420762.9267111
1185.92; 697.68283; 5421473.1377212
1186.94; 686.60889; 5422172.075941
1187.96; 677.48104; 5422861.7224015
1188.97; 669.91866; 5423543.6706922
1189.99; 663.38973; 5424218.9728074
1191.01; 657.48854; 5424888.267773
1192.03; 652.15919; 5425552.137685
1193.05; 647.79319; 5426211.5631967
1194.06; 645.17506; 5426868.3235664
1195.08; 645.29737; 5427525.2084384
1196.10; 649.10331; 5428185.9675972
1197.12; 657.23069; 5428855.0000797
1198.14; 669.82495; 5429536.8529728
1199.15; 686.46583; 5430235.6455639
1200.17; 706.22016; 5430954.5472077
1201.19; 727.80129; 5431695.4175167
1202.21; 749.79208; 5432458.6734992
1203.22; 770.8775; 5433243.3935302
1204.24; 790.0374; 5434047.6175137
1205.26; 806.66582; 5434868.7685091
1206.28; 820.60546; 5435704.1094613
1207.30; 832.10638; 5436551.157854
1208.31; 841.73062; 5437408.0033049
1209.33; 850.22773; 5438273.4984433
1210.35; 858.40204; 5439147.3146831
1211.37; 866.98726; 5440029.8703015
1212.39; 876.54207; 5440922.1523049
1213.40; 887.38369; 5441825.4706062
1214.42; 899.57906; 5442741.2032659
1215.44; 913.00947; 5443670.6075054
1216.46; 927.50707; 5444614.7696832
1217.48; 943.03306; 5445574.7366398
1218.49; 959.83727; 5446551.8095647
1219.51; 978.52434; 5447547.9051224
1220.53; 999.96556; 5448565.826915
1221.55; 1025.0435; 5449609.2770123
1222.57; 1054.2846; 5450682.4932055
1223.58; 1087.496; 5451789.517175
1224.60; 1123.5529; 5452933.245538
1225.62; 1160.4494; 5454114.5329826
1226.64; 1195.6462; 5455331.6491878
1227.66; 1226.635; 5456580.310662
1228.67; 1251.5461; 5457854.3305676
1229.69; 1269.5847; 5459146.7130349
1230.71; 1281.1279; 5460450.8459323
1231.73; 1287.427; 5461761.391066
1232.75; 1290.0101; 5463074.5657283
1233.76; 1289.9985; 5464387.7285087
1234.78; 1287.5976; 5465698.4472758
1235.80; 1281.9693; 5467003.4366715
1236.82; 1271.5517; 5468297.8213858
1237.84; 1254.7245; 5469575.0767588
1238.85; 1230.5798; 5470827.7539299
1239.87; 1199.5092; 5472048.8024948
1240.89; 1163.3775; 5473233.0705379
1241.91; 1125.2035; 5474378.4791779
1242.93; 1088.4446; 5475486.4688413
1243.94; 1056.1271; 5476561.5606443
1244.96; 1030.119; 5477610.1773308
1245.98; 1010.7863; 5478639.1142005
1247.00; 997.13485; 5479654.1544463
1248.02; 987.36879; 5480659.2532685
1249.03; 979.65856; 5481656.503412
1250.05; 972.85036; 5482646.8230974
1251.07; 966.88849; 5483631.0738558
1252.09; 962.83502; 5484611.1983558
1253.10; 962.51546; 5485590.9975615
1254.12; 967.94003; 5486576.3187429
1255.14; 980.70703; 5487574.6361848
1256.16; 1001.5751; 5488594.1964532
1257.18; 1030.3098; 5489643.0073989
1258.19; 1065.8035; 5490727.9493729
1259.21; 1106.3787; 5491854.195104
1260.23; 1150.141; 5493024.9890447
1261.25; 1195.2626; 5494241.7148039
1262.27; 1240.1306; 5495504.114247
1263.28; 1283.3694; 5496810.5289018
1264.30; 1323.7969; 5498158.0970127
1265.32; 1360.3946; 5499542.9199933
1266.34; 1392.3462; 5500960.26833
1267.36; 1419.1497; 5502404.9014779
1268.37; 1440.7536; 5503871.526518
1269.39; 1457.6383; 5505355.3394571
1270.41; 1470.7697; 5506852.5195181
1271.43; 1481.3971; 5508360.5178707
1272.45; 1490.7313; 5509878.0180527
1273.46; 1499.5934; 5511404.5393918
1274.48; 1508.1544; 5512939.7754945
1275.50; 1515.8665; 5514482.8621366
1276.52; 1521.6255; 5516031.8112228
1277.54; 1524.129; 5517583.3087489
1278.55; 1522.3185; 5519132.9632615
1279.57; 1515.7616; 5520675.94321
1280.59; 1504.8425; 5522207.8079888
1281.61; 1490.69; 5523725.2660925
1282.63; 1474.8613; 5525226.6112503
1283.64; 1458.8809; 5526711.689064
1284.66; 1443.7834; 5528181.398282
1285.68; 1429.8077; 5529636.8807716
1286.70; 1416.3384; 5531078.6521733
1287.72; 1402.1101; 5532505.9397999
1288.73; 1385.6027; 5533916.4235614
1289.75; 1365.5026; 5535306.4462484
1290.77; 1341.0881; 5536671.6160186
1291.79; 1312.4295; 5538007.6125676
1292.81; 1280.3577; 5539310.9614488
1293.82; 1246.2275; 5540579.5673156
1294.84; 1211.5589; 5541812.8820391
1295.86; 1177.6681; 5543011.6973229
1296.88; 1145.3939; 5544177.6588372
1297.89; 1114.9911; 5545312.6716383
1298.91; 1086.2126; 5546418.389164
1299.93; 1058.5515; 5547495.9489411
1300.95; 1031.5744; 5548546.0471846
1301.97; 1005.2505; 5549569.3488622
1302.98; 980.1806; 5550567.1304184
1304.00; 957.6446; 5551541.9713007
1305.02; 939.42818; 5552498.2686542
1306.04; 927.44055; 5553442.3631144
1307.06; 923.19758; 5554382.1384094
1308.07; 927.2942; 5555326.0838891
1309.09; 939.01427; 5556281.9598917
1310.11; 956.20966; 5557255.3400617
1311.13; 975.52115; 5558248.3784924
1312.15; 992.92312; 5559259.1313805
1313.16; 1004.4789; 5560281.6475421
1314.18; 1007.1246; 5561306.8569665
1315.20; 999.28458; 5562324.0855507
1316.22; 981.16627; 5563322.8704744
1317.24; 954.68012; 5564294.6936354
1318.25; 923.03746; 5565234.3059347
1319.27; 890.16739; 5566140.4579214
1320.29; 860.1227; 5567016.0257155
1321.31; 836.61111; 5567867.6597277
1322.33; 822.70747; 5568705.1404273
1323.34; 820.71352; 5569540.5913793
1324.36; 832.07477; 5570387.6075892
1325.38; 857.26418; 5571260.2655281
1326.40; 895.59958; 5572171.9472494
1327.42; 945.04552; 5573133.9628053
1328.43; 1002.1192; 5574154.0769187
1329.45; 1062.0355; 5575235.1832415
1330.47; 1119.1734; 5576374.4534513
1331.49; 1167.8426; 5577563.2667786
1332.51; 1203.2156; 5578788.0883657
1333.52; 1222.2156; 5580032.2511429
1334.54; 1224.1454; 5581278.3783549
1335.56; 1210.9154; 5582511.0379911
1336.58; 1186.8421; 5583719.1920443
1337.60; 1158.102; 5584898.0898644
1338.61; 1131.9907; 5586050.4075327
1339.63; 1116.1347; 5587186.5844974
1340.65; 1117.742; 5588324.3976263
1341.67; 1142.9037; 5589487.8242652
1342.69; 1195.9113; 5590705.2103364
1343.70; 1278.5691; 5592006.7385299
1344.72; 1389.5541; 5593421.2446374
1345.74; 1523.9694; 5594972.5797192
1346.76; 1673.3022; 5596675.9291467
1347.77; 1825.9771; 5598534.6950518
1348.79; 1968.583; 5600538.6276294
1349.81; 2087.6651; 5602663.7805907
1350.83; 2171.778; 5604874.5569233
1351.85; 2213.3665; 5607127.6685385
1352.86; 2210.0272; 5609377.3808727
1353.88; 2164.8359; 5611581.0903734
1354.90; 2085.6517; 5613704.1938215
1355.92; 1983.5727; 5615723.3851886
1356.94; 1870.9238; 5617627.9048499
1357.95; 1759.2532; 5619418.7486689
1358.97; 1657.7622; 5621106.2790774
1359.99; 1572.4359; 5622706.9509555
1361.01; 1505.9256; 5624239.9182296
1362.03; 1458.0425; 5625724.1425528
1363.04; 1426.601; 5627176.3608466
1364.06; 1408.3347; 5628609.984814
1365.08; 1399.6704; 5630034.7888361
1366.10; 1397.2579; 5631457.1370472
1367.12; 1398.2557; 5632880.5009678
1368.13; 1400.4365; 5634306.0848902
1369.15; 1402.1912; 5635733.4550353
1370.17; 1402.4824; 5637161.1215724
1371.19; 1400.7639; 5638587.0387749
1372.21; 1396.8612; 5640008.9832116
1373.22; 1390.8128; 5641424.770624
1374.24; 1382.7007; 5642832.300223
1375.26; 1372.5247; 5644229.4711338
1376.28; 1360.1816; 5645614.0773173
1377.30; 1345.5802; 5646983.8198662
1378.31; 1328.8684; 5648336.5505501
1379.33; 1310.6865; 5649670.7728343
1380.35; 1292.3234; 5650986.3022735
1381.37; 1275.6679; 5652284.8771699
1382.39; 1262.9118; 5653570.4668824
1383.40; 1256.061; 5654849.0828258
1384.42; 1256.4063; 5656128.0502694
1385.44; 1264.1483; 5657414.8986551
1386.46; 1278.3437; 5658716.1973874
1387.48; 1297.2356; 5660036.7272482
1388.49; 1318.8829; 5661379.2930793
1389.51; 1341.8766; 5662745.2655523
1390.53; 1365.868; 5664135.6602263
1391.55; 1391.676; 5665552.3263334
1392.56; 1420.8849; 5666998.7258905
1393.58; 1455.035; 5668479.888717
1394.60; 1494.6817; 5670001.4102253
1395.62; 1538.6838; 5671567.7239284
1396.64; 1584.0276; 5673180.1956962
1397.65; 1626.3273; 5674835.7267469
1398.67; 1660.8992; 5676526.4505087
1399.69; 1684.0948; 5678240.7863737
1400.71; 1694.4632; 5679965.6768307
1401.73; 1693.3523; 5681689.4364357
1402.74; 1684.7353; 5683404.4242547
1403.76; 1674.3042; 5685108.7937
1404.78; 1668.1104; 5686806.8580839
1405.80; 1671.1649; 5688508.0318597
1406.82; 1686.4008; 5690224.7151458
1407.83; 1714.2465; 5691969.7441396
1408.85; 1752.8394; 5693754.058999
1409.87; 1798.702; 5695585.060007
1410.89; 1847.5888; 5697465.8256671
1411.91; 1895.2218; 5699395.0797139
1412.92; 1937.7482; 5701367.6237814
1413.94; 1971.9086; 5703374.9416094
1414.96; 1995.0314; 5705405.7975208
1415.98; 2005.0112; 5707446.8123816
1417.00; 2000.3792; 5709483.112126
1418.01; 1980.4766; 5711499.1518259
1419.03; 1945.6388; 5713479.7281298
1420.05; 1897.2678; 5715411.0648354
1421.07; 1837.7063; 5717281.7705878
1422.09; 1769.9276; 5719083.4805089
1423.10; 1697.1502; 5720811.1061576
1424.12; 1622.5324; 5722462.7741622
1425.14; 1549.0571; 5724039.647472
1426.16; 1479.6085; 5725545.82512
1427.18; 1417.1215; 5726988.3936688
1428.19; 1364.6147; 5728377.5125641
1429.21; 1324.9551; 5729726.2596394
1430.23; 1300.3327; 5731049.9421951
1431.25; 1291.6016; 5732364.7368465
1432.27; 1297.7726; 5733685.813397
1433.28; 1315.9584; 5735025.4022751
1434.30; 1341.9326; 5736391.4317244
1435.32; 1371.2275; 5737787.2821764
1436.34; 1400.4435; 5739212.8732175
1437.36; 1428.3012; 5740666.8222143
1438.37; 1456.015; 5742148.9826097
1439.39; 1486.7962; 5743662.476947
1440.41; 1524.6393; 5745214.4940126
1441.43; 1572.8518; 5746815.5892716
1442.44; 1632.9292; 5748477.8406946
1443.46; 1704.274; 5750212.7180906
1444.48; 1784.9275; 5752029.6972897
1445.50; 1873.0568; 5753936.3882495
1446.52; 1968.5839; 5755940.3217446
1447.53; 2074.2155; 5758051.783622
1448.55; 2195.2968; 5760286.5010725
1449.57; 2338.3356; 5762666.8257642
1450.59; 2508.5522; 5765220.4236064
1451.61; 2707.2319; 5767976.2688992
1452.62; 2929.8027; 5770958.6816647
1453.64; 3165.3806; 5774180.9025095
1454.66; 3398.0694; 5777639.9905342
1455.68; 3609.7327; 5781314.5426221
1456.70; 3783.4775; 5785165.9594775
1457.71; 3906.8722; 5789142.9867729
1458.73; 3974.0227; 5793188.3703554
1459.75; 3986.0165; 5797245.9631291
1460.77; 3949.7533; 5801266.6415982
1461.79; 3875.6467; 5805211.882679
1462.80; 3774.9475; 5809054.616369
1463.82; 3657.4475; 5812777.7400654
1464.84; 3530.0906; 5816371.219934
1465.86; 3396.6716; 5819828.8850703
1466.88; 3258.4516; 5823145.8481913
1467.89; 3115.2925; 5826317.0815106
1468.91; 2966.854; 5829337.2108617
1469.93; 2813.4906; 5832201.222861
1470.95; 2656.6726; 5834905.6009076
1471.97; 2498.9495; 5837449.4237152
1472.98; 2343.6056; 5839835.1130902
1474.00; 2194.1979; 5842068.7118606
1475.02; 2054.1265; 5844159.7239768
1476.04; 1926.2989; 5846120.6131317
1477.06; 1812.874; 5847966.040615
1478.07; 1715.0363; 5849711.8735958
1479.09; 1632.7775; 5851373.9705944
1480.11; 1564.725; 5852966.7931194
1481.13; 1508.1284; 5854502.0028015
1482.15; 1459.1332; 5855987.3374471
1483.16; 1413.4235; 5857426.1416156
1484.18; 1367.1905; 5858817.8825552
1485.20; 1318.2207; 5860159.7743805
1486.22; 1266.7724; 5861449.294013
1487.23; 1215.8788; 5862687.0061164
1488.25; 1170.8398; 5863878.8704631
1489.27; 1137.9183; 5865037.2221747
1490.29; 1122.5747; 5866179.9547377
1491.31; 1127.8283; 5867328.0352853
1492.32; 1153.4054; 5868502.1521873
1493.34; 1196.1428; 5869719.7739585
1494.36; 1251.6975; 5870993.9479571
1495.38; 1317.0834; 5872334.6819993
1496.40; 1393.1322; 5873752.8304715
1497.41; 1485.8358; 5875265.3472292
1498.43; 1605.7953; 5876899.9775794
1499.45; 1765.621; 5878697.303544
1500.47; 1975.9062; 5880708.690777
1501.49; 2241.0423; 5882989.975092
1502.50; 2556.375; 5885592.2545783
1503.52; 2907.8874; 5888552.3584519
1504.54; 3274.7878; 5891885.9511476
1505.56; 3634.3629; 5895585.5757648
1506.58; 3967.5836; 5899624.4046461
1507.59; 4263.5915; 5903964.5568225
1508.61; 4521.4977; 5908567.2463815
1509.63; 4748.8239; 5913401.3441989
1510.65; 4957.093; 5918447.4510036
1511.67; 5156.0989; 5923696.1371793
1512.68; 5348.8729; 5929141.0589451
1513.70; 5529.133; 5934769.4777218
1514.72; 5682.1316; 5940553.6424717
1515.74; 5788.6362; 5946446.2243386
1516.76; 5830.7142; 5952381.6397576
1517.77; 5797.4216; 5958283.1647575
1518.79; 5688.5989; 5964073.9129294
1519.81; 5515.6713; 5969688.6283051
1520.83; 5299.359; 5975083.1471002
1521.85; 5065.144; 5980239.2450763
1522.86; 4837.9103; 5985164.0290135
1523.88; 4637.2274; 5989884.5263862
1524.90; 4474.3422; 5994439.2136267
1525.92; 4351.3035; 5998868.6528615
1526.94; 4262.011; 6003207.1961397
1527.95; 4194.5669; 6007477.0842416
1528.97; 4134.1879; 6011685.509099
1529.99; 4066.0437; 6015824.5661261
1531.01; 3977.6164; 6019873.6080081
1532.03; 3860.3808; 6023803.3090296
1533.04; 3710.7325; 6027580.6745515
1534.06; 3530.1429; 6031174.2076573
1535.08; 3324.55; 6034558.4560826
1536.10; 3103.0692; 6037717.2466338
1537.11; 2876.2299; 6040645.1246021
1538.13; 2654.0799; 6043346.8633637
1539.15; 2444.5712; 6045835.3313166
1540.17; 2252.594; 6048128.3748521
1541.19; 2079.8417; 6050245.563976
1542.20; 1925.4367; 6052205.5754587
1543.22; 1787.0167; 6054024.6812973
1544.24; 1661.8654; 6055716.3885944
1545.26; 1547.7261; 6057291.907008
1546.28; 1443.1186; 6058760.9394603
1547.29; 1347.2176; 6060132.3488171
1548.31; 1259.5218; 6061414.4876611
1549.33; 1179.5855; 6062615.2547923
1550.35; 1106.9853; 6063742.1180629
1551.37; 1041.5171; 6064802.337505
1552.38; 983.45553; 6065803.4527925
1553.40; 933.64982; 6066753.8680163
1554.42; 893.3001; 6067663.2089744
1555.44; 863.42706; 6068542.1404653
1556.46; 844.22336; 6069401.5234143
1557.47; 834.57175; 6070251.081439
1558.49; 831.97699; 6071097.9981146
1559.51; 833.00031; 6071945.9564842
1560.53; 834.0756; 6072795.0094505
1561.55; 832.42095; 6073642.3780537
1562.56; 826.71164; 6074483.9348256
1563.58; 817.27254; 6075315.8830037
1564.60; 805.73736; 6076136.088866
1565.62; 794.32641; 6076944.678875
1566.64; 785.02784; 6077743.8033408
1567.65; 778.97846; 6078536.7697973
1568.67; 776.23397; 6079326.942487
1569.69; 775.94829; 6080116.824364
1570.71; 776.82376; 6080907.5974349
1571.73; 777.61242; 6081699.1733187
1572.74; 777.46674; 6082490.6009069
1573.76; 776.0367; 6083280.5727827
1574.78; 773.33466; 6084067.7940939
1575.80; 769.48435; 6084851.0959543
1576.82; 764.49836; 6085629.3222948
1577.83; 758.1875; 6086401.1244486
1578.85; 750.22486; 6087164.820987
1579.87; 740.30942; 6087918.42403
1580.89; 728.33327; 6088659.8358679
1581.90; 714.46736; 6089387.1328091
1582.92; 699.12897; 6090098.8159273
1583.94; 682.85362; 6090793.9314432
1584.96; 666.13506; 6091472.0281843
1585.98; 649.30323; 6092132.9908546
1586.99; 632.4846; 6092776.8328862
1588.01; 615.64758; 6093403.5355527
1589.03; 598.70017; 6094012.9864936
1590.05; 581.59177; 6094605.0218145
1591.07; 564.37916; 6095179.5354461
1592.08; 547.24051; 6095736.6026727
1593.10; 530.44499; 6096276.5727845
1594.12; 514.30008; 6096800.1080688
1595.14; 499.09803; 6097308.168328
1596.16; 485.07305; 6097801.9517577
1597.17; 472.36919; 6098282.8032051
1598.19; 461.01464; 6098752.0962104
1599.21; 450.90182; 6099211.094802
1600.23; 441.78197; 6099660.809779
1601.25; 433.28936; 6100101.8796496
1602.26; 425.00792; 6100534.519373
1603.28; 416.57985; 6100958.5796845
1604.30; 407.83636; 6101373.7394999
1605.32; 398.91301; 6101779.8157272
1606.34; 390.30537; 6102177.129751
1607.35; 382.82996; 6102566.8341317
1608.37; 377.47945; 6102951.091925
1609.39; 375.19352; 6103333.0227383
1610.41; 376.59661; 6103716.3818339
1611.43; 381.77125; 6104105.0084947
1612.44; 390.13389; 6104502.1479569
1613.46; 400.45823; 6104909.797157
1614.48; 411.0549; 6105328.2333119
1615.50; 420.07436; 6105755.8508851
1616.52; 425.86542; 6106189.363507
1617.53; 427.30339; 6106624.3399216
1618.55; 424.00628; 6107055.9600164
1619.57; 416.38422; 6107479.8211815
1620.59; 405.50981; 6107892.6126712
1621.61; 392.84387; 6108292.5107751
1622.62; 379.88913; 6108679.2215161
1623.64; 367.86293; 6109053.6901049
1624.66; 357.47242; 6109417.5815988
1625.68; 348.84543; 6109772.6911905
1626.70; 341.6248; 6110120.4504938
1627.71; 335.18762; 6110461.6570255
1628.73; 328.91735; 6110796.4806979
1629.75; 322.44544; 6111124.7162444
1630.77; 315.79252; 6111446.1794049
1631.78; 309.37272; 6111761.1074849
1632.80; 303.86662; 6112070.4305886
1633.82; 300.0065; 6112375.824255
1634.84; 298.3407; 6112679.5222179
1635.86; 299.04648; 6112983.9386351
1636.87; 301.8435; 6113291.2022944
1637.89; 306.02975; 6113602.7273784
1638.91; 310.62713; 6113918.9323929
1639.93; 314.59514; 6114239.1766743
1640.95; 317.05562; 6114561.9256094
1641.96; 317.47123; 6114885.0976267
1642.98; 315.73594; 6115206.5031893
1644.00; 312.15999; 6115524.2685853
1645.02; 307.36051; 6115837.1483168
1646.04; 302.09199; 6116144.6649252
1647.05; 297.06442; 6116447.0636846
1648.07; 292.79663; 6116745.1180189
1649.09; 289.53924; 6117039.8564755
1650.11; 287.27932; 6117332.2944272
1651.13; 285.81421; 6117623.2409638
1652.14; 284.86261; 6117913.2188066
1653.16; 284.17214; 6118202.4937827
1654.18; 283.58809; 6118491.1742208
1655.20; 283.06429; 6118779.3214579
1656.22; 282.61993; 6119067.0163544
1657.23; 282.26613; 6119354.3510935
1658.25; 281.93721; 6119641.3510076
1659.27; 281.45903; 6119927.8641517
1660.29; 280.57185; 6120213.4741924
1661.31; 279.00369; 6120497.4879085
1662.32; 276.56923; 6120779.023451
1663.34; 273.25833; 6121057.1886401
1664.36; 269.27955; 6121331.3036071
1665.38; 265.03921; 6121601.1020875
1666.40; 261.05837; 6121866.848246
1667.41; 257.85198; 6122129.3304377
1668.43; 255.80725; 6122389.7311811
1669.45; 255.0986; 6122649.4105519
1670.47; 255.66371; 6122909.6651725
1671.49; 257.24446; 6123171.5289273
1672.50; 259.47585; 6123435.6641436
1673.52; 261.9917; 6123702.3603925
1674.54; 264.51366; 6123971.6238882
1675.56; 266.89873; 6124243.3152785
1676.57; 269.13665; 6124517.28477
1677.59; 271.3053; 6124793.4618562
1678.61; 273.50401; 6125071.8771397
1679.63; 275.78778; 6125352.6171964
1680.65; 278.12051; 6125635.7318707
1681.66; 280.35596; 6125921.1221369
1682.68; 282.24551; 6126208.4358822
1683.70; 283.4666; 6126496.9926448
1684.72; 283.66515; 6126785.7515313
1685.74; 282.50796; 6127073.332441
1686.75; 279.74319; 6127358.0989417
1687.77; 275.26625; 6127638.3081018
1688.79; 269.18219; 6127912.3239539
1689.81; 261.84917; 6128178.8751084
1690.83; 253.8821; 6128437.3161342
1691.84; 246.09892; 6128687.8342196
1692.86; 239.40383; 6128931.5369886
1693.88; 234.6216; 6129170.3716538
1694.90; 232.31759; 6129406.8609387
1695.92; 232.65129; 6129643.6899092
1696.93; 235.31009; 6129883.225422
1697.95; 239.55238; 6130127.0794054
1698.97; 244.35852; 6130375.825835
1699.99; 248.65504; 6130628.9459332
1701.01; 251.5526; 6130885.015621
1702.02; 252.53175; 6131142.0820459
1703.04; 251.52533; 6131398.1239794
1704.06; 248.87835; 6131651.4713954
1705.08; 245.20448; 6131901.0789773
1706.10; 241.18951; 6132146.5994918
1707.11; 237.40525; 6132388.2677964
1708.13; 234.18926; 6132626.662362
1709.15; 231.61872; 6132862.4402272
1710.17; 229.57278; 6133096.135415
1711.19; 227.84825; 6133328.0751059
1712.20; 226.27925; 6133558.4176203
1713.22; 224.81619; 6133787.2708052
1714.24; 223.53967; 6134014.8245462
1715.26; 222.61159; 6134241.4335356
1716.28; 222.18878; 6134467.612125
1717.29; 222.33537; 6134693.9399421
1718.31; 222.96648; 6134920.9101929
1719.33; 223.84105; 6135148.7707225
1720.35; 224.6028; 6135377.4066772
1721.37; 224.85222; 6135606.2965332
1722.38; 224.22616; 6135834.5490851
1723.40; 222.46355; 6136061.0073815
1724.42; 219.44524; 6136284.3931691
1725.44; 215.20603; 6136503.4636171
1726.45; 209.92462; 6136717.1578245
1727.47; 203.89936; 6136924.7185697
1728.49; 197.51519; 6137125.7805108
1729.51; 191.20412; 6137320.4180543
1730.53; 185.39875; 6137509.1459851
1731.54; 180.48018; 6137692.8670176
1732.56; 176.72501; 6137872.7654533
1733.58; 174.26091; 6138050.1555366
1734.60; 173.04165; 6138226.304471
1735.62; 172.85085; 6138402.259179
1736.63; 173.33693; 6138578.7086905
1737.65; 174.07404; 6138755.9085505
1738.67; 174.63636; 6138933.6808259
1739.69; 174.66945; 6139111.4867856
1740.71; 173.94358; 6139288.5538441
1741.72; 172.37877; 6139464.0279975
1742.74; 170.03854; 6139637.1198988
1743.76; 167.09637; 6139807.2167896
1744.78; 163.78407; 6139973.9419044
1745.80; 160.33411; 6140137.1551063
1746.81; 156.92794; 6140296.9009738
1747.83; 153.66109; 6140453.3213299
1748.85; 150.53228; 6140606.5566941
1749.87; 147.45927; 6140756.6638656
1750.89; 144.31826; 6140903.5736314
1751.90; 140.99754; 6141047.1030458
1752.92; 137.45082; 6141187.0220478
1753.94; 133.73408; 6141323.1575736
1754.96; 130.0124; 6141455.5045867
1755.98; 126.53093; 6141584.307614
1756.99; 123.55542; 6141710.0816973
1758.01; 121.29807; 6141833.5579008
1759.03; 119.85132; 6141955.5613739
1760.05; 119.15117; 6142076.8521273
1761.07; 118.98366; 6142197.9723539
1762.08; 119.03416; 6142319.1439958
1763.10; 118.96555; 6142440.2457889
1764.12; 118.50119; 6142560.8748822
1765.14; 117.48802; 6142680.4726217
1766.16; 115.92175; 6142798.4759574
1767.17; 113.92931; 6142914.4510796
1768.19; 111.71796; 6143028.1751395
1769.21; 109.50941; 6143139.65099
1770.23; 107.48031; 6143249.0613083
1771.24; 105.72494; 6143356.6847358
1772.26; 104.24646; 6143462.8031358
1773.28; 102.97316; 6143567.6253709
1774.30; 101.78944; 6143671.2426276
1775.32; 100.56994; 6143773.6184854
1776.33; 99.208178; 6143874.60813
1777.35; 97.635907; 6143973.9972704
1778.37; 95.833379; 6144071.5515153
1779.39; 93.83217; 6144167.0686149
1780.41; 91.711237; 6144260.4266967
1781.42; 89.585385; 6144351.6207531
1782.44; 87.585072; 6144440.7785766
1783.46; 85.828743; 6144528.1485338
1784.48; 84.392838; 6144614.0568016
1785.50; 83.28817; 6144698.8405646
1786.51; 82.452153; 6144782.7732987
1787.53; 81.762811; 6144866.0043123
1788.55; 81.073372; 6144948.5335065
1789.57; 80.258131; 6145030.2328209
1790.59; 79.254628; 6145110.9106119
1791.60; 78.086893; 6145190.399699
1792.62; 76.860285; 6145268.6401524
1793.64; 75.728302; 6145345.7282959
1794.66; 74.842; 6145421.9142219
1795.68; 74.299146; 6145497.547546
1796.69; 74.110349; 6145572.9886831
1797.71; 74.193135; 6145648.5140928
1798.73; 74.39483; 6145724.2448197
1799.75; 74.535219; 6145800.1184566
1800.77; 74.454002; 6145875.9094178
1801.78; 74.04805; 6145951.2871377
1802.80; 73.288772; 6146025.8919448
1803.82; 72.217894; 6146099.4066448
1804.84; 70.927257; 6146171.6075319
1805.86; 69.532049; 6146242.3881573
1806.87; 68.146451; 6146311.7583034
1807.89; 66.866916; 6146379.8259381
1808.91; 65.763623; 6146446.7704689
1809.93; 64.877334; 6146512.8127957
1810.95; 64.218208; 6146578.1841606
1811.96; 63.764921; 6146643.094099
1812.98; 63.465122; 6146707.6988545
1814.00; 63.240112; 6146772.0745597
1815.02; 62.996384; 6146836.2021605
1816.04; 62.644247; 6146899.971301
1817.05; 62.120365; 6146963.207152
1818.07; 61.408279; 6147025.7181298
1819.09; 60.55029; 6147087.355712
1820.11; 59.645939; 6147148.0727036
1821.12; 58.836053; 6147207.9652663
1822.14; 58.275598; 6147267.2873105
1823.16; 58.101743; 6147326.4323779
1824.18; 58.404683; 6147385.8858253
1825.20; 59.207672; 6147446.1566807
1826.21; 60.460051; 6147507.7024032
1827.23; 62.043875; 6147570.8603908
1828.25; 63.792018; 6147635.7979124
1829.27; 65.513861; 6147702.488196
1830.29; 67.023995; 6147770.7157305
1831.30; 68.169391; 6147840.1092286
1832.32; 68.851045; 6147910.1966213
1833.34; 69.036949; 6147980.4732563
1834.36; 68.764459; 6148050.4725081
1835.38; 68.131752; 6148119.8276919
1836.39; 67.279936; 6148188.3157638
1837.41; 66.369144; 6148255.876689
1838.43; 65.553069; 6148322.6068849
1839.45; 64.956449; 6148388.7297469
1840.47; 64.658946; 6148454.5497639
1841.48; 64.68707; 6148520.3984101
1842.50; 65.013958; 6148586.5798137
1843.52; 65.565665; 6148653.3228318
1844.54; 66.23243; 6148720.7445872
1845.56; 66.88386; 6148788.8294705
1846.57; 67.387566; 6148857.4271044
1847.59; 67.630516; 6148926.2720512
1848.61; 67.54115; 6148995.0260273
1849.63; 67.108291; 6149063.339372
1850.65; 66.391338; 6149130.9228892
1851.66; 65.516269; 6149197.6156242
1852.68; 64.65457; 6149263.4311866
1853.70; 63.987006; 6149328.5671974
1854.72; 63.659872; 6149393.3701995
1855.74; 63.745678; 6149458.2605486
1856.75; 64.221068; 6149523.6348243
1857.77; 64.971009; 6149589.7725079
1858.79; 65.820591; 6149656.775029
1859.81; 66.586506; 6149724.5572183
1860.83; 67.132799; 6149792.8955107
1861.84; 67.412821; 6149861.5188539
1862.86; 67.482947; 6149930.2135818
1863.88; 67.482677; 6149998.9080348
1864.90; 67.587196; 6150067.7088835
1865.91; 67.948141; 6150136.8771594
1866.93; 68.642664; 6150206.7524293
1867.95; 69.648001; 6150277.6510884
1868.97; 70.849782; 6150349.7731094
1869.99; 72.080378; 6150423.1478235
1871.00; 73.173213; 6150497.6349963
1872.02; 74.013974; 6150572.9780275
1873.04; 74.571646; 6150648.8887456
1874.06; 74.900441; 6150725.1341628
1875.08; 75.114541; 6150801.5975242
1876.09; 75.347059; 6150878.2975789
1877.11; 75.709138; 6150955.3662141
1878.13; 76.263344; 6151032.9990078
1879.15; 77.018584; 6151111.4006032
1880.17; 77.944695; 6151190.7449393
1881.18; 78.997443; 6151271.1609269
1882.20; 80.141598; 6151352.7416157
1883.22; 81.36201; 6151435.5646305
1884.24; 82.658771; 6151519.7076924
1885.26; 84.029954; 6151605.2465601
1886.27; 85.450791; 6151692.231778
1887.29; 86.85964; 6151780.651143
1888.31; 88.158201; 6151870.3923879
1889.33; 89.227665; 6151961.2223005
1890.35; 89.956273; 6152052.7939045
1891.36; 90.269612; 6152144.6844747
1892.38; 90.154196; 6152236.4575556
1893.40; 89.66756; 6152327.7352625
1894.42; 88.93282; 6152418.2650354
1895.44; 88.120348; 6152507.9677475
1896.45; 87.422303; 6152596.9598792
1897.47; 87.026183; 6152685.5487783
1898.49; 87.091926; 6152774.2046004
1899.51; 87.734327; 6152863.514359
1900.53; 89.010414; 6152954.1231199
1901.54; 90.910693; 6153046.6662824
1902.56; 93.35414; 6153141.6967687
1903.58; 96.18863; 6153239.6126436
1904.60; 99.199794; 6153340.5937536
1905.62; 102.13105; 6153444.5587535
1906.63; 104.71519; 6153551.1542981
1907.65; 106.71416; 6153659.7847092
1908.67; 107.9597; 6153769.6830222
1909.69; 108.38537; 6153880.0146481
1910.71; 108.04117; 6153989.9959001
1911.72; 107.08569; 6154099.004513
1912.74; 105.75661; 6154206.6601765
1913.76; 104.32664; 6154312.8601931
1914.78; 103.05588; 6154417.7666356
1915.79; 102.1523; 6154521.7532715
1916.81; 101.74884; 6154625.329199
1917.83; 101.89996; 6154729.0589623
1918.85; 102.59419; 6154833.495418
1919.87; 103.77479; 6154939.1336783
1920.88; 105.35991; 6155046.3855237
1921.90; 107.25583; 6155155.5673349
1922.92; 109.362; 6155266.8931324
1923.94; 111.57119; 6155380.4677853
1924.96; 113.77095; 6155496.2817052
1925.97; 115.85199; 6155614.2140289
1926.99; 117.72527; 6155734.0532759
1928.01; 119.34494; 6155855.5412777
1929.03; 120.72942; 6155978.4386168
1930.05; 121.97184; 6156102.6006831
1931.06; 123.23285; 6156228.0464099
1932.08; 124.71392; 6156354.9998029
1933.10; 126.61528; 6156483.8886926
1934.12; 129.08797; 6156615.294673
1935.14; 132.19164; 6156749.8600595
1936.15; 135.86858; 6156888.1684102
1937.17; 139.94047; 6157030.6217735
1938.19; 144.12906; 6157177.338935
1939.21; 148.09651; 6157328.0947902
1940.23; 151.49791; 6157482.3131284
1941.24; 154.03649; 6157639.1156328
1942.26; 155.51249; 6157797.4206389
1943.28; 155.85808; 6157956.077435
1944.30; 155.15286; 6158114.0163551
1945.32; 153.61718; 6158270.3920199
1946.33; 151.5832; 6158424.697172
1947.35; 149.44712; 6158576.8278923
1948.37; 147.60909; 6158727.0875732
1949.39; 146.40965; 6158876.1262818
1950.41; 146.07348; 6159024.8227849
1951.42; 146.67018; 6159174.1266984
1952.44; 148.0999; 6159324.8860061
1953.46; 150.10753; 6159477.6889978
1954.48; 152.32443; 6159632.7486937
1955.50; 154.33206; 6159789.8520744
1956.51; 155.73802; 6159948.3866556
1957.53; 156.25185; 6160107.4442945
1958.55; 155.74711; 6160265.9881341
1959.57; 154.29641; 6160423.0552203
1960.58; 152.16933; 6160577.9570286
1961.60; 149.78897; 6160730.4357375
1962.62; 147.65109; 6160880.7381746
1963.64; 146.21937; 6161029.5831871
1964.66; 145.81896; 6161178.0205928
1965.67; 146.55433; 6161327.2065763
1966.69; 148.27544; 6161478.1445796
1967.71; 150.60569; 6161631.4546728
1968.73; 153.02955; 6161787.2321464
1969.75; 155.02018; 6161945.0360031
1970.76; 156.17386; 6162104.0142568
1971.78; 156.31355; 6162263.1347025
1972.80; 155.53128; 6162421.458831
1973.82; 154.15608; 6162578.3830723
1974.84; 152.6563; 6162733.7806015
1975.85; 151.50504; 6162888.0061982
1976.87; 151.04843; 6163041.7669854
1977.89; 151.41449; 6163195.9004034
1978.91; 152.4868; 6163351.1253902
1979.93; 153.94655; 6163507.8363324
1980.94; 155.36593; 6163665.9921408
1981.96; 156.32264; 6163825.1218397
1982.98; 156.50216; 6163984.4342882
1984.00; 155.76243; 6164142.9937233
1985.02; 154.14962; 6164299.911384
1986.03; 151.86896; 6164454.5074356
1987.05; 149.22544; 6164606.412497
1988.07; 146.55324; 6164755.5973728
1989.09; 144.15078; 6164902.3366424
1990.11; 142.23217; 6165047.1228498
1991.12; 140.89986; 6165190.5528228
1992.14; 140.13882; 6165333.2080963
1993.16; 139.83085; 6165475.5498716
1994.18; 139.78652; 6165617.8465199
1995.20; 139.79097; 6165760.1476924
1996.21; 139.65662; 6165902.312108
1997.23; 139.27231; 6166044.0853063
1998.25; 138.63569; 6166185.2104528
1999.27; 137.85749; 6166325.5434283
2000.29; 137.13195; 6166465.1378407
2001.30; 136.67794; 6166604.2700837
2002.32; 136.66559; 6166743.38976
2003.34; 137.15054; 6166883.0030878
2004.36; 138.03757; 6167023.5193726
2005.37; 139.08836; 6167165.1053193
2006.39; 139.97429; 6167307.5931035
2007.41; 140.36086; 6167450.4744064
2008.43; 139.99964; 6167592.9880022
2009.45; 138.80037; 6167734.2807895
2010.46; 136.86191; 6167873.6003061
2011.48; 134.45291; 6168010.4675639
2012.50; 131.94801; 6168144.7849412
2013.52; 129.73777; 6168276.8523923
2014.54; 128.13686; 6168407.2901827
2015.55; 127.31388; 6168536.8902193
2016.57; 127.25907; 6168666.4344597
2017.59; 127.79512; 6168796.5243794
2018.61; 128.62583; 6168927.4599285
2019.63; 129.40872; 6169059.1924182
2020.64; 129.83357; 6169191.3573866
2021.66; 129.68884; 6169323.3750325
2022.68; 128.90132; 6169454.5910143
2023.70; 127.54086; 6169584.4221029
2024.72; 125.79011; 6169712.4710034
2025.73; 123.8873; 6169838.5829308
2026.75; 122.05713; 6169962.8318175
2027.77; 120.44838; 6170085.4430701
2028.79; 119.09606; 6170206.6777246
2029.81; 117.91916; 6170326.7143419
2030.82; 116.755; 6170445.5658954
2031.84; 115.41954; 6170563.058008
2032.86; 113.77387; 6170678.8748979
2033.88; 111.77452; 6170792.6565317
2034.90; 109.49002; 6170904.1126508
2035.91; 107.0778; 6171013.1132289
2036.93; 104.72948; 6171119.723322
2037.95; 102.60486; 6171224.1706424
2038.97; 100.77895; 6171326.7592612
2039.99; 99.222259; 6171427.7632389
2041.00; 97.82199; 6171527.341804
2042.02; 96.436205; 6171625.5096992
2043.04; 94.960481; 6171722.175371
2044.06; 93.381496; 6171817.233704
2045.08; 91.796865; 6171910.6789513
2046.09; 90.39324; 6172002.6953687
2047.11; 89.390236; 6172093.690772
2048.13; 88.970157; 6172184.2585522
2049.15; 89.218017; 6172275.0786432
2050.17; 90.09169; 6172366.7880961
2051.18; 91.43027; 6172459.8601653
2052.20; 92.994944; 6172554.5250053
2053.22; 94.526203; 6172650.7486014
2054.24; 95.797731; 6172748.2665577
2055.25; 96.651521; 6172846.6536354
2056.27; 97.008097; 6172945.4036919
2057.29; 96.855829; 6173043.9987466
2058.31; 96.230083; 6173141.9568182
2059.33; 95.193937; 6173238.8601386
2060.34; 93.827928; 6173334.3729207
2061.36; 92.229288; 6173428.2583559
2062.38; 90.51513; 6173520.3988522
2063.40; 88.82165; 6173610.8154589
2064.42; 87.293591; 6173699.6765673
2065.43; 86.063556; 6173787.285554
2066.45; 85.226528; 6173874.0424819
2067.47; 84.818334; 6173960.3838856
2068.49; 84.806296; 6174046.7130355
2069.51; 85.096101; 6174133.3371943
2070.52; 85.553055; 6174220.4265122
2071.54; 86.030877; 6174308.0022328
2072.56; 86.399107; 6174395.9527955
2073.58; 86.561725; 6174484.0688958
2074.60; 86.463815; 6174572.0853283
2075.61; 86.087998; 6174659.7191952
2076.63; 85.445793; 6174746.699325
2077.65; 84.569765; 6174832.7876965
2078.67; 83.510163; 6174917.7974393
2079.69; 82.336039; 6175001.6119737
2080.70; 81.13734; 6175084.2062841
2081.72; 80.022854; 6175165.666096
2082.74; 79.109851; 6175246.1965108
2083.76; 78.504541; 6175326.1107459
2084.78; 78.276657; 6175405.7930051
2085.79; 78.434997; 6175485.636447
2086.81; 78.912096; 6175565.965556
2087.83; 79.564842; 6175646.9591314
2088.85; 80.193909; 6175728.59307
2089.87; 80.579719; 6175810.6197468
2090.88; 80.527538; 6175892.593306
2091.90; 79.911086; 6175973.9393432
2092.92; 78.703522; 6176054.0561325
2093.94; 76.987298; 6176132.42588
2094.96; 74.939466; 6176208.7110227
2095.97; 72.795339; 6176282.8135371
2096.99; 70.799159; 6176354.884026
2098.01; 69.153932; 6176425.2797445
2099.03; 67.982816; 6176494.4833177
2100.04; 67.311127; 6176563.0031402
2101.06; 67.072153; 6176631.2796977
2102.08; 67.133291; 6176699.6184914
2103.10; 67.333582; 6176768.1611723
2104.12; 67.521312; 6176836.8949539
2105.13; 67.581625; 6176905.6901314
2106.15; 67.4485; 6176974.3497936
2107.17; 67.101316; 6177042.6560378
2108.19; 66.551352; 6177110.4024421
2109.21; 65.826093; 6177177.410564
2110.22; 64.958357; 6177243.5353681
2111.24; 63.983533; 6177308.6678434
2112.26; 62.943428; 6177372.7415371
2113.28; 61.891444; 6177435.7443558
2114.30; 60.892758; 6177497.7305557
2115.31; 60.015418; 6177558.8236616
2116.33; 59.312767; 6177619.2014988
2117.35; 58.802538; 6177679.0599446
2118.37; 58.451007; 6177738.5605478
2119.39; 58.170266; 6177797.7753686
2120.40; 57.832821; 6177856.6466844
2121.42; 57.301683; 6177914.9773253
2122.44; 56.468089; 6177972.4594034
2123.46; 55.285417; 6178028.7375724
2124.48; 53.788232; 6178083.4916716
2125.49; 52.089662; 6178136.5166996
2126.51; 50.357091; 6178187.7780453
2127.53; 48.773031; 6178237.4268859
2128.55; 47.492558; 6178285.7722606
2129.57; 46.60945; 6178333.2186695
2130.58; 46.13988; 6178380.1870767
2131.60; 46.02668; 6178427.0402503
2132.62; 46.160766; 6178474.0299185
2133.64; 46.411667; 6178521.274993
2134.66; 46.657454; 6178568.7702676
2135.67; 46.806146; 6178616.4169048
2136.69; 46.804683; 6178664.0620526
2137.71; 46.636236; 6178711.5357286
2138.73; 46.310221; 6178758.6775357
2139.75; 45.850729; 6178805.3515993
2140.76; 45.28807; 6178851.4528999
2141.78; 44.655508; 6178896.9102806
2142.80; 43.990265; 6178941.6904723
2143.82; 43.335772; 6178985.8044185
2144.84; 42.741754; 6179029.3136799
2145.85; 42.259923; 6179072.3324579
2146.87; 41.935323; 6179115.0208066
2147.89; 41.795603; 6179157.5669272
2148.91; 41.841827; 6179200.1601013
2149.92; 42.044297; 6179242.9593812
2150.94; 42.345468; 6179286.0652407
2151.96; 42.669772; 6179329.5012274
2152.98; 42.938043; 6179373.2103026
2154.00; 43.08288; 6179417.0668151
2155.01; 43.061087; 6179460.9011437
2156.03; 42.860359; 6179504.5311401
2157.05; 42.499072; 6179547.7933619
2158.07; 42.019946; 6179590.5678542
2159.09; 41.479792; 6179632.7924921
2160.10; 40.938231; 6179674.4658451
2161.12; 40.448124; 6179715.6402901
2162.14; 40.049529; 6179756.4089828
2163.16; 39.767839; 6179796.8909265
2164.18; 39.615457; 6179837.2177525
2165.19; 39.595523; 6179877.5242865
2166.21; 39.705782; 6179917.9430593
2167.23; 39.940978; 6179958.601251
2168.25; 40.292897; 6179999.6176818
2169.27; 40.748291; 6180041.0976842
2170.28; 41.285954; 6180083.125004
2171.30; 41.874911; 6180125.7518569
2172.32; 42.475617; 6180168.9902019
2173.34; 43.045185; 6180212.8083432
2174.36; 43.546185; 6180257.1364809
2175.37; 43.956816; 6180301.8826226
2176.39; 44.279093; 6180346.9568281
2177.41; 44.541524; 6180392.2981777
2178.43; 44.793989; 6180437.8965251
2179.45; 45.094913; 6180483.8012011
2180.46; 45.493697; 6180530.1118214
2181.48; 46.013559; 6180576.9516385
2182.50; 46.640707; 6180624.4298654
2183.52; 47.324333; 6180672.6039943
2184.54; 47.988731; 6180721.4544512
2185.55; 48.554756; 6180770.8810978
2186.57; 48.964336; 6180820.7246789
2187.59; 49.200143; 6180870.8083015
2188.61; 49.293693; 6180920.9871539
2189.63; 49.3187; 6180971.1914623
2190.64; 49.371462; 6181021.4494805
2191.66; 49.544513; 6181071.8836568
2192.68; 49.902145; 6181122.6818873
2193.70; 50.465715; 6181174.0538074
2194.71; 51.213057; 6181226.1864893
2195.73; 52.091207; 6181279.2130901
2196.75; 53.036848; 6181333.2023129
2197.77; 53.996319; 6181388.1682357
2198.79; 54.937645; 6181444.0923873
2199.80; 55.850614; 6181500.9459026
2200.82; 56.736031; 6181558.7007337
2201.84; 57.589832; 6181617.3246972
2202.86; 58.389983; 6181676.7631803
2203.88; 59.092945; 6181736.9172485
2204.89; 59.642499; 6181797.6307383
2205.91; 59.988384; 6181858.6963246
2206.93; 60.107711; 6181919.8833805
2207.95; 60.020273; 6181980.9814287
2208.97; 59.790635; 6182041.8457148
2209.98; 59.514515; 6182102.4289225
2211.00; 59.292931; 6182162.7865677
2212.02; 59.202414; 6182223.0520704
2213.04; 59.271544; 6182283.387944
2214.06; 59.472242; 6182343.92812
2215.07; 59.729285; 6182404.7299546
2216.09; 59.945177; 6182465.751558
2217.11; 60.032156; 6182526.8617025
2218.13; 59.940606; 6182587.8786529
2219.15; 59.674427; 6182648.624645
2220.16; 59.288466; 6182708.9777451
2221.18; 58.86925; 6182768.9041011
2222.20; 58.505873; 6182828.4605556
2223.22; 58.26097; 6182887.7677092
2224.24; 58.151342; 6182946.9632664
2225.25; 58.144256; 6183006.1516096
2226.27; 58.16998; 6183065.3661393
2227.29; 58.145782; 6183124.5560365
2228.31; 58.003026; 6183183.600614
2229.33; 57.708398; 6183242.3452731
2230.34; 57.272569; 6183300.6462774
2231.36; 56.743944; 6183358.4091639
2232.38; 56.190034; 6183415.608194
2233.40; 55.672862; 6183472.2807653
2234.42; 55.226513; 6183528.4989725
2235.43; 54.844127; 6183584.3279269
2236.45; 54.478624; 6183639.7848153
2237.47; 54.057267; 6183694.8127805
2238.49; 53.506041; 6183749.2796209
2239.51; 52.776929; 6183803.0042574
2240.52; 51.87024; 6183855.8059239
2241.54; 50.845365; 6183907.5643116
2242.56; 49.816407; 6183958.2752639
2243.58; 48.933111; 6184008.0870594
2244.59; 48.351442; 6184057.3067409
2245.61; 48.200937; 6184106.3732144
2246.63; 48.556916; 6184155.8020601
2247.65; 49.424457; 6184206.1140246
2248.67; 50.738019; 6184257.7631388
2249.68; 52.376601; 6184311.0802585
2250.70; 54.190246; 6184366.2435906
2251.72; 56.030835; 6184423.2805625
2252.74; 57.779109; 6184482.0972019
2253.76; 59.361104; 6184542.5242447
2254.77; 60.750321; 6184604.3654501
2255.79; 61.956123; 6184667.4341093
2256.81; 63.002924; 6184731.5683676
2257.83; 63.907457; 6184796.623401
2258.85; 64.662013; 6184862.4465402
2259.86; 65.229809; 6184928.8476713
2260.88; 65.554879; 6184995.579709
2261.90; 65.584254; 6185062.3416491
2262.92; 65.295942; 6185128.8101009
2263.94; 64.723658; 6185194.6959918
2264.95; 63.969284; 6185259.8139626
2265.97; 63.196878; 6185324.1456577
2266.99; 62.606965; 6185387.876846
2268.01; 62.395661; 6185451.3929368
2269.03; 62.70817; 6185515.227148
2270.04; 63.598732; 6185579.9679123
2271.06; 65.008423; 6185646.1436818
2272.08; 66.768099; 6185714.1107252
2273.10; 68.627351; 6185783.9704074
2274.12; 70.30341; 6185855.536245
2275.13; 71.538382; 6185928.3592308
2276.15; 72.150868; 6186001.8057011
2277.17; 72.069468; 6186075.1693099
2278.19; 71.340619; 6186147.790982
2279.21; 70.110062; 6186219.1599999
2280.22; 68.584007; 6186288.9755595
2281.24; 66.980772; 6186357.1590952
2282.26; 65.485116; 6186423.8201174
2283.28; 64.215526; 6186489.1887517
2284.30; 63.210283; 6186553.5340921
2285.31; 62.43277; 6186617.0879578
2286.33; 61.791861; 6186679.9894056
2287.35; 61.170507; 6186742.2583419
2288.37; 60.455167; 6186803.7990931
2289.38; 59.560128; 6186864.4287337
2290.40; 58.443152; 6186923.9213407
2291.42; 57.111314; 6186982.0581941
2292.44; 55.617763; 6187038.6746766
2293.46; 54.051196; 6187093.6964614
2294.47; 52.52033; 6187147.1598914
2295.49; 51.13584; 6187199.2139697
2296.51; 49.992363; 6187250.1040377
2297.53; 49.153271; 6187300.1399461
2298.55; 48.640721; 6187349.6541015
2299.56; 48.432919; 6187398.9567234
2300.58; 48.469382; 6187448.2964632
2301.60; 48.663527; 6187497.833834
2302.62; 48.920377; 6187547.6326671
2303.64; 49.156054; 6187597.6714092
2304.65; 49.31523; 6187647.8721854
2305.67; 49.38298; 6187698.141928
2306.69; 49.388423; 6187748.4172114
2307.71; 49.398968; 6187798.7032293
2308.73; 49.505722; 6187849.0979181
2309.74; 49.802452; 6187899.7946649
2310.76; 50.362184; 6187951.0611953
2311.78; 51.216706; 6188003.1975924
2312.80; 52.344427; 6188056.4819605
2313.82; 53.670875; 6188111.1165952
2314.83; 55.083368; 6188167.1890867
2315.85; 56.457519; 6188224.6604045
2316.87; 57.689226; 6188283.3855472
2317.89; 58.723007; 6188343.1630344
2318.91; 59.567307; 6188403.799983
2319.92; 60.290365; 6188465.1729733
2320.94; 60.995878; 6188527.264145
2321.96; 61.784491; 6188590.1580909
2322.98; 62.712668; 6188653.9968812
2324.00; 63.762622; 6188718.9044786
2325.01; 64.834501; 6188784.9032029
2326.03; 65.765427; 6188851.8495699
2327.05; 66.371232; 6188919.4126204
2328.07; 66.498986; 6188987.1057185
2329.09; 66.074322; 6189054.3665271
2330.10; 65.128851; 6189120.6648868
2331.12; 63.799152; 6189185.6096703
2332.14; 62.297857; 6189249.0262002
2333.16; 60.865936; 6189310.9850964
2334.18; 59.720543; 6189371.7780323
2335.19; 59.012996; 6189431.8507155
2336.21; 58.806946; 6189491.7136487
2337.23; 59.079506; 6189551.8540363
2338.25; 59.740882; 6189612.6676767
2339.26; 60.663444; 6189674.4204449
2340.28; 61.710437; 6189737.2390073
2341.30; 62.757358; 6189801.1232893
2342.32; 63.703619; 6189865.9708245
2343.34; 64.476466; 6189931.6050848
2344.35; 65.031272; 6189997.8041132
2345.37; 65.351907; 6190064.3295346
2346.39; 65.452429; 6190130.9572828
2347.41; 65.37843; 6190197.5097037
2348.43; 65.204684; 6190263.8852583
2349.44; 65.026135; 6190330.0790574
2350.46; 64.941785; 6190396.1869919
2351.48; 65.03446; 6190462.3892661
2352.50; 65.352265; 6190528.9150515
2353.52; 65.898303; 6190595.9966805
2354.53; 66.63339; 6190663.8265962
2355.55; 67.492368; 6190732.5309143
2356.57; 68.409746; 6190802.1690836
2357.59; 69.346408; 6190872.7607348
2358.61; 70.307732; 6190944.3309718
2359.62; 71.345377; 6191016.9574871
2360.64; 72.53993; 6191090.8000057
2361.66; 73.96806; 6191166.0962991
2362.68; 75.663829; 6191243.1188116
2363.70; 77.587103; 6191322.0991346
2364.71; 79.611301; 6191403.1400035
2365.73; 81.537687; 6191486.1418503
2366.75; 83.135469; 6191570.7701705
2367.77; 84.198329; 6191656.4804361
2368.79; 84.601702; 6191742.6013175
2369.80; 84.343398; 6191828.4592567
2370.82; 83.554042; 6191913.5136659
2371.84; 82.472388; 6191997.4669985
2372.86; 81.391257; 6192080.3197862
2373.88; 80.589084; 6192162.3559962
2374.89; 80.266663; 6192244.0639957
2375.91; 80.506866; 6192326.0165108
2376.93; 81.267457; 6192408.7432756
2377.95; 82.406289; 6192492.629322
2378.97; 83.727951; 6192577.8607631
2379.98; 85.035149; 6192664.4228751
2381.00; 86.16856; 6192752.1387511
2382.02; 87.025314; 6192840.7267652
2383.04; 87.555779; 6192929.8547705
2384.05; 87.747115; 6193019.1775472
2385.07; 87.606428; 6193108.3571107
2386.09; 87.154789; 6193197.0769255
2387.11; 86.436517; 6193285.0655699
2388.13; 85.539173; 6193372.1407571
2389.14; 84.612546; 6193458.2726774
2390.16; 83.872777; 6193543.6515455
2391.18; 83.581922; 6193628.734335
2392.20; 84.00212; 6193714.2448682
2393.22; 85.333934; 6193801.111131
2394.23; 87.656056; 6193890.3412137
2395.25; 90.885586; 6193982.8588184
2396.27; 94.77343; 6194079.3340801
2397.29; 98.939594; 6194180.0503175
2398.31; 102.94162; 6194284.8404495
2399.32; 106.3599; 6194393.1102412
2400.34; 108.87898; 6194503.9443423
2401.36; 110.3456; 6194616.2713986
2402.38; 110.79079; 6194729.0516447
2403.40; 110.41284; 6194841.4471472
2404.41; 109.52732; 6194952.941232
2405.43; 108.49755; 6195063.3870525
2406.45; 107.66154; 6195172.9818575
2407.47; 107.27111; 6195282.179219
2408.49; 107.45425; 6195391.5630065
2409.50; 108.20624; 6195501.7122868
2410.52; 109.40814; 6195613.085055
2411.54; 110.86572; 6195725.9415772
2412.56; 112.35789; 6195840.3170633
2413.58; 113.68261; 6195956.0410592
2414.59; 114.68979; 6196072.7903202
2415.61; 115.29496; 6196190.1556178
2416.63; 115.4733; 6196307.7024593
2417.65; 115.23919; 6196425.010985
2418.67; 114.62027; 6196541.6894765
2419.68; 113.63585; 6196657.3658656
2420.70; 112.28681; 6196771.6689903
2421.72; 110.55943; 6196884.21372
2422.74; 108.44; 6196994.6009646
2423.76; 105.93339; 6197102.4365853
2424.77; 103.07785; 6197207.3653844
2425.79; 99.950657; 6197309.1108406
2426.81; 96.663443; 6197407.5100548
2427.83; 93.350078; 6197502.5364064
2428.85; 90.152437; 6197594.3076972
2429.86; 87.208503; 6197683.08219
2430.88; 84.644468; 6197769.2466056
2431.90; 82.568974; 6197853.2982579
2432.92; 81.065699; 6197935.8196418
2433.93; 80.181384; 6198017.4408311
2434.95; 79.909983; 6198098.7857453
2435.97; 80.178208; 6198180.4037015
2436.99; 80.840792; 6198262.6961388
2438.01; 81.693153; 6198345.8562429
2439.02; 82.5043; 6198429.8420602
2440.04; 83.065018; 6198514.3986641
2441.06; 83.238812; 6198599.1321828
2442.08; 82.999123; 6198683.6217087
2443.10; 82.438261; 6198767.5403011
2444.11; 81.741464; 6198850.7495843
2445.13; 81.130975; 6198933.3374157
2446.15; 80.795918; 6199015.5841741
2447.17; 80.829857; 6199097.8654805
2448.19; 81.196589; 6199180.5201048
2449.20; 81.736184; 6199263.7240135
2450.22; 82.2103; 6199347.410551
2451.24; 82.37309; 6199431.2628022
2452.26; 82.045952; 6199514.7820405
2453.28; 81.173652; 6199597.4133154
2454.29; 79.846031; 6199678.6931293
2455.31; 78.280687; 6199758.3794908
2456.33; 76.773781; 6199836.5318865
2457.35; 75.634309; 6199913.5243492
2458.37; 75.119678; 6199989.9929401
2459.38; 75.387179; 6200066.7338355
2460.40; 76.469213; 6200144.5761941
2461.42; 78.272856; 6200224.2545842
2462.44; 80.599238; 6200306.3011309
2463.46; 83.17629; 6200390.9710046
2464.47; 85.699205; 6200478.2090974
2465.49; 87.874574; 6200567.6616218
2466.51; 89.464819; 6200658.7329466
2467.53; 90.32847; 6200750.6834309
2468.55; 90.449556; 6200842.7571756
2469.56; 89.947814; 6200934.3201689
2470.58; 89.062579; 6201024.9820315
2471.60; 88.108153; 6201114.6723287
2472.62; 87.406443; 6201203.6483156
2473.64; 87.211218; 6201292.425572
2474.65; 87.643884; 6201381.6432639
2475.67; 88.660407; 6201471.8957327
2476.69; 90.061747; 6201563.5747053
2477.71; 91.54759; 6201656.7662016
2478.72; 92.799245; 6201751.2318281
2479.74; 93.567256; 6201846.4792569
2480.76; 93.73668; 6201941.8991521
2481.78; 93.349578; 6202036.9249944
2482.80; 92.578242; 6202131.1656501
2483.81; 91.65925; 6202224.4708116
2484.83; 90.811717; 6202316.9132205
2485.85; 90.168163; 6202408.700519
2486.87; 89.741292; 6202500.0532814
2487.89; 89.436457; 6202591.095735
2488.90; 89.102704; 6202681.798443
2489.92; 88.601306; 6202771.9907495
2490.94; 87.864839; 6202861.4333644
2491.96; 86.924266; 6202949.9185167
2492.98; 85.894331; 6203037.3552392
2493.99; 84.923884; 6203123.8040886
2495.01; 84.131264; 6203209.4460847
2496.03; 83.550446; 6203294.4968333
2497.05; 83.109391; 6203379.0986066
2498.07; 82.649642; 6203463.2323752
2499.08; 81.980651; 6203546.6851406
2500.10; 80.949403; 6203629.0881397
2501.12; 79.500427; 6203710.0161437
2502.14; 77.705005; 6203789.1164854
2503.16; 75.749514; 6203866.2262223
2504.17; 73.887125; 6203941.4401268
2505.19; 72.369169; 6204015.1088184
2506.21; 71.378409; 6204087.7689583
2507.23; 70.984467; 6204160.0280822
2508.25; 71.133334; 6204232.4387466
2509.26; 71.671396; 6204305.3971353
2510.28; 72.394067; 6204379.0911718
2511.30; 73.102991; 6204453.5068626
2512.32; 73.655266; 6204528.4847448
2513.34; 73.992489; 6204603.8059055
2514.35; 74.144564; 6204679.2818726
2515.37; 74.210459; 6204754.8249179
2516.39; 74.323509; 6204830.4830424
2517.41; 74.611385; 6204906.4342125
2518.43; 75.160561; 6204982.9444201
2519.44; 75.992787; 6205060.3017978
2520.46; 77.05775; 6205138.7432622
2521.48; 78.242488; 6205218.3907382
2522.50; 79.394848; 6205299.2112673
2523.52; 80.355691; 6205381.009893
2524.53; 80.992889; 6205463.4571595
2525.55; 81.22988; 6205546.1456717
2526.57; 81.062656; 6205628.6639572
2527.59; 80.561688; 6205710.6722793
2528.60; 79.858674; 6205791.9649637
2529.62; 79.121518; 6205872.5072549
2530.64; 78.523455; 6205952.4407436
2531.66; 78.213125; 6206032.0583294
2532.68; 78.291444; 6206111.7556404
2533.69; 78.798812; 6206191.9694311
2534.71; 79.713356; 6206273.1141882
2535.73; 80.958492; 6206355.5264396
2536.75; 82.416751; 6206439.4231352
2537.77; 83.946615; 6206524.8771666
2538.78; 85.399772; 6206611.8104496
2539.80; 86.637128; 6206700.003307
2540.82; 87.542633; 6206789.1179301
2541.84; 88.034331; 6206878.7330797
2542.86; 88.07203; 6206968.3866054
2543.87; 87.66107; 6207057.6217915
2544.89; 86.851795; 6207146.0331709
2545.91; 85.734763; 6207233.3074598
2546.93; 84.432102; 6207319.2556964
2547.95; 83.085685; 6207403.8333387
2548.96; 81.842813; 6207487.1457907
2549.98; 80.840116; 6207569.4375404
2551.00; 80.186632; 6207651.0640714
2552.02; 79.947694; 6207732.4473735
2553.04; 80.132217; 6207814.0185121
2554.05; 80.686686; 6207896.1540763
2555.07; 81.498952; 6207979.1164923
2556.09; 82.41338; 6208063.0097567
2557.11; 83.256032; 6208147.7608045
2558.13; 83.865239; 6208233.1319983
2559.14; 84.120389; 6208318.7629246
2560.16; 83.961318; 6208404.2319228
2561.18; 83.392896; 6208489.122292
2562.20; 82.473912; 6208573.0771755
2563.22; 81.29452; 6208655.8314891
2564.23; 79.950482; 6208737.2176297
2565.25; 78.523405; 6208817.1510676
2566.27; 77.073578; 6208895.6086446
2567.29; 75.646669; 6208972.6136891
2568.31; 74.28955; 6209048.2372451
2569.32; 73.066325; 6209122.6156111
2570.34; 72.065054; 6209195.974726
2571.36; 71.389179; 6209268.6458298
2572.38; 71.133959; 6209341.0571307
2573.39; 71.354807; 6209413.6932447
2574.41; 72.038717; 6209487.0255496
2575.43; 73.090094; 6209561.4281112
2576.45; 74.33812; 6209637.1011093
2577.47; 75.565849; 6209714.0238827
2578.48; 76.554051; 6209791.9526034
2579.50; 77.128013; 6209870.4655921
2580.52; 77.194666; 6209949.0464307
2581.54; 76.760591; 6210027.1854003
2582.56; 75.927277; 6210104.4760916
2583.57; 74.866324; 6210180.6867789
2584.59; 73.782109; 6210255.7937825
2585.61; 72.87145; 6210329.9737739
2586.63; 72.28912; 6210403.5609783
2587.65; 72.125385; 6210476.9815079
2588.66; 72.398314; 6210550.6798669
2589.68; 73.060445; 6210625.0522468
2590.70; 74.016978; 6210700.3983369
2591.72; 75.150977; 6210776.8987888
2592.74; 76.350044; 6210854.6198391
2593.75; 77.528599; 6210933.5406074
2594.77; 78.640493; 6211013.5932357
2595.79; 79.678669; 6211094.7026825
2596.81; 80.661929; 6211176.8130458
2597.83; 81.612959; 6211259.891516
2598.84; 82.535307; 6211343.908897
2599.86; 83.398439; 6211428.8049087
2600.88; 84.138111; 6211514.4538746
2601.90; 84.674246; 6211600.6486034
2602.92; 84.941555; 6211687.1154409
2603.93; 84.922006; 6211773.5623787
2604.95; 84.665578; 6211859.7482841
2605.97; 84.288218; 6211945.5500528
2606.99; 83.943445; 6212031.0008577
2608.01; 83.774165; 6212116.2793427
2609.02; 83.860217; 6212201.6454247
2610.04; 84.181224; 6212287.338278
2611.06; 84.611124; 6212373.4687511
2612.08; 84.950821; 6212459.9450206
2613.10; 84.991818; 6212546.4630239
2614.11; 84.591416; 6212632.5734352
2615.13; 83.733791; 6212717.8108217
2616.15; 82.553964; 6212801.8471945
2617.17; 81.312809; 6212884.6201254
2618.19; 80.32741; 6212966.389962
2619.20; 79.87652; 6213047.7008126
2620.22; 80.110274; 6213129.2496143
2621.24; 80.993005; 6213211.6969988
2622.26; 82.298199; 6213295.4730143
2623.27; 83.658399; 6213380.6336542
2624.29; 84.655964; 6213466.8097728
2625.31; 84.92846; 6213553.26328
2626.33; 84.258955; 6213639.0352603
2627.35; 82.627334; 6213723.1463204
2628.36; 80.211276; 6213804.7979378
2629.38; 77.340434; 6213883.5271619
2630.40; 74.419559; 6213959.2830613
2631.42; 71.842551; 6214032.4156786
2632.44; 69.918563; 6214103.5897584
2633.45; 68.8248; 6214173.650435
2634.47; 68.591588; 6214243.4737114
2635.49; 69.116734; 6214313.8315642
2636.51; 70.200681; 6214385.2928276
2637.53; 71.591952; 6214458.1703454
2638.54; 73.033409; 6214532.5152039
2639.56; 74.302219; 6214608.1516563
2640.58; 75.238959; 6214684.7416696
2641.60; 75.763149; 6214761.8652865
2642.62; 75.873984; 6214839.1017284
2643.63; 75.636622; 6214916.0965453
2644.65; 75.156642; 6214992.6027633
2645.67; 74.547957; 6215068.4893666
2646.69; 73.901731; 6215143.7181397
2647.71; 73.264541; 6215218.2982806
2648.72; 72.632212; 6215292.2347381
2649.74; 71.961485; 6215365.4884246
2650.76; 71.196048; 6215437.9629297
2651.78; 70.298409; 6215509.5236764
2652.80; 69.276518; 6215580.0441827
2653.81; 68.195262; 6215649.4640169
2654.83; 67.167676; 6215717.8378128
2655.85; 66.327589; 6215785.3564365
2656.87; 65.791895; 6215852.3297463
2657.89; 65.624488; 6215919.1326432
2658.90; 65.813694; 6215986.1281441
2659.92; 66.270802; 6216053.5889607
2660.94; 66.850607; 6216121.6399938
2661.96; 67.388031; 6216190.2381019
2662.98; 67.7401; 6216259.1946005
2663.99; 67.821333; 6216328.2337913
2665.01; 67.623017; 6216397.0711049
2666.03; 67.211758; 6216465.4897743
2667.05; 66.708545; 6216533.3961942
2668.06; 66.254397; 6216600.8403117
2669.08; 65.971511; 6216667.996463
2670.10; 65.929207; 6216735.1095512
2671.12; 66.122399; 6216802.4193005
2672.14; 66.467324; 6216870.0801678
2673.15; 66.815788; 6216938.0957569
2674.17; 66.985605; 6217006.2842123
2675.19; 66.801635; 6217074.2853941
2676.21; 66.139322; 6217141.6123695
2677.23; 64.961231; 6217207.740099
2678.24; 63.337502; 6217272.2149428
2679.26; 61.443707; 6217334.7619854
2680.28; 59.534291; 6217395.3653243
2681.30; 57.895741; 6217454.3006909
2682.32; 56.789408; 6217512.1098574
2683.33; 56.397551; 6217569.5201308
2684.35; 56.786387; 6217627.3262223
2685.37; 57.89592; 6217686.2617705
2686.39; 59.559199; 6217746.8904653
2687.41; 61.545228; 6217809.5408516
2688.42; 63.612871; 6217874.296009
2689.44; 65.560049; 6217941.03331
2690.46; 67.254501; 6218009.4954897
2691.48; 68.638857; 6218079.3668839
2692.50; 69.711623; 6218150.3303085
2693.51; 70.493812; 6218222.0899672
2694.53; 70.995542; 6218294.3603657
2695.55; 71.196329; 6218366.8351566
2696.57; 71.04711; 6218439.1580488
2697.59; 70.493427; 6218510.9173155
2698.60; 69.510678; 6218581.6761867
2699.62; 68.137155; 6218651.0368701
2700.64; 66.490651; 6218718.7214837
2701.66; 64.759904; 6218784.644271
2702.68; 63.171011; 6218848.9496341
2703.69; 61.938143; 6218911.9999905
2704.71; 61.213859; 6218974.3130576
2705.73; 61.054942; 6219036.4643539
2706.75; 61.414497; 6219098.9816617
2707.77; 62.162065; 6219162.2599614
2708.78; 63.123882; 6219226.517349
2709.80; 64.128854; 6219291.7977549
2710.82; 65.044732; 6219358.0104858
2711.84; 65.793706; 6219424.9856396
2712.86; 66.345317; 6219492.5223092
2713.87; 66.693707; 6219560.4136253
2714.89; 66.83208; 6219628.445799
2715.91; 66.737501; 6219696.3816952
2716.93; 66.373748; 6219763.9473066
2717.94; 65.711112; 6219830.838383
2718.96; 64.753697; 6219896.7548519
2719.98; 63.560532; 6219961.4567304
2721.00; 62.248691; 6220024.8232112
2722.02; 60.97398; 6220086.892092
2723.03; 59.894576; 6220147.8621854
2724.05; 59.130938; 6220208.054929
2725.07; 58.737887; 6220267.8475634
2726.09; 58.70038; 6220327.6020168
2727.11; 58.955019; 6220387.6156818
2728.12; 59.428456; 6220448.1112858
2729.14; 60.076411; 6220509.2664795
2730.16; 60.906334; 6220571.2664989
2731.18; 61.973369; 6220634.3527146
2732.20; 63.350549; 6220698.8408401
2733.21; 65.085376; 6220765.0949444
2734.23; 67.161241; 6220833.4621898
2735.25; 69.480665; 6220904.1905085
2736.27; 71.878612; 6220977.3598342
2737.29; 74.16176; 6221052.8533056
2738.30; 76.158857; 6221130.3797361
2739.32; 77.762829; 6221209.5389401
2740.34; 78.948962; 6221289.9055764
2741.36; 79.763829; 6221371.1017124
2742.38; 80.291974; 6221452.8354768
2743.39; 80.616496; 6221534.8995905
2744.41; 80.791497; 6221617.141848
2745.43; 80.838125; 6221699.4315714
2746.45; 80.764473; 6221781.6463196
2747.47; 80.597956; 6221863.6915609
2748.48; 80.412281; 6221945.5477934
2749.50; 80.3327; 6222027.3230153
2750.52; 80.512511; 6222109.2812771
2751.54; 81.086769; 6222191.8241085
2752.56; 82.120284; 6222275.4190142
2753.57; 83.571347; 6222360.4910391
2754.59; 85.287968; 6222447.31051
2755.61; 87.041475; 6222535.9149756
2756.63; 88.587707; 6222626.0934382
2757.65; 89.734784; 6222717.4395763
2758.66; 90.393177; 6222809.4559301
2759.68; 90.589999; 6222901.6726396
2760.70; 90.442905; 6222993.739614
2761.72; 90.104366; 6223085.4619708
2762.73; 89.698432; 6223176.7711042
2763.75; 89.274913; 6223267.6491135
2764.77; 88.799023; 6223358.0426872
2765.79; 88.180581; 6223447.8067133
2766.81; 87.331227; 6223536.7061335
2767.82; 86.226818; 6223624.4813129
2768.84; 84.949577; 6223710.9563165
2769.86; 83.691738; 6223796.1508942
2770.88; 82.716646; 6223880.35287
2771.90; 82.289197; 6223964.1197213
2772.91; 82.599093; 6224048.2020335
2773.93; 83.703302; 6224133.4083828
2774.95; 85.507311; 6224220.4511354
2775.97; 87.790833; 6224309.8184148
2776.99; 90.26792; 6224401.7072617
2778.00; 92.659848; 6224496.0309887
2779.02; 94.755983; 6224592.4884906
2780.04; 96.444021; 6224690.6643422
2781.06; 97.703914; 6224790.1227106
2782.08; 98.574076; 6224890.4668667
2783.09; 99.108447; 6224991.354989
2784.11; 99.344755; 6225092.4836627
2785.13; 99.297412; 6225193.564143
2786.15; 98.976019; 6225294.3174589
2787.17; 98.41794; 6225394.502675
2788.18; 97.716243; 6225493.9735938
2789.20; 97.025685; 6225592.7415548
2790.22; 96.538849; 6225691.0139369
2791.24; 96.437928; 6225789.1835862
2792.26; 96.839296; 6225887.7618111
2793.27; 97.752591; 6225987.2697308
2794.29; 99.071533; 6226088.1202765
2795.31; 100.60169; 6226190.5284589
2796.33; 102.11597; 6226294.4781075
2797.35; 103.41772; 6226399.7528808
2798.36; 104.38893; 6226506.0163021
2799.38; 105.00745; 6226612.9093567
2800.40; 105.33044; 6226720.131201
2801.42; 105.45462; 6226827.4794572
2802.44; 105.47262; 6226934.8460331
2803.45; 105.44405; 6227042.1835301
2804.47; 105.3916; 6227149.4676294
2805.49; 105.31933; 6227256.6781649
2806.51; 105.23984; 6227363.8077844
2807.52; 105.19248; 6227470.8891923
2808.54; 105.23993; 6227578.018895
2809.56; 105.44148; 6227685.3537693
2810.58; 105.81408; 6227793.0679341
2811.60; 106.29979; 6227901.2765354
2812.61; 106.75788; 6228009.9514461
2813.63; 106.99018; 6228118.8628274
2814.65; 106.79474; 6228227.5752686
2815.67; 106.03005; 6228335.5092828
2816.69; 104.66662; 6228442.0553881
2817.70; 102.807; 6228546.7084737
2818.72; 100.66648; 6228649.182604
2819.74; 98.521951; 6228749.4736985
2820.76; 96.647051; 6228847.8562254
2821.78; 95.255439; 6228944.8221519
2822.79; 94.468396; 6229040.9869022
2823.81; 94.31155; 6229136.9919905
2824.83; 94.733665; 6229233.4267732
2825.85; 95.633232; 6229330.777277
2826.87; 96.87913; 6229429.3960512
2827.88; 98.318765; 6229529.4803114
2828.90; 99.777058; 6229631.0490509
2829.92; 101.05698; 6229733.9206955
2830.94; 101.95327; 6229837.7047282
2831.96; 102.28477; 6229941.826215
2832.97; 101.94018; 6230045.5969242
2833.99; 100.92237; 6230148.3315371
2835.01; 99.372211; 6230249.4881601
2836.03; 97.557451; 6230348.7974355
2837.05; 95.823176; 6230446.3412935
2838.06; 94.515099; 6230542.5535861
2839.08; 93.897603; 6230638.1372945
2840.10; 94.091851; 6230733.918739
2841.12; 95.053054; 6230830.6786466
2842.14; 96.592677; 6230929.0058234
2843.15; 98.436162; 6231029.2095889
2844.17; 100.29553; 6231131.306114
2845.19; 101.93315; 6231235.0696603
2846.21; 103.1987; 6231340.1214857
2847.23; 104.03342; 6231446.0230218
2848.24; 104.44817; 6231552.3467494
2849.26; 104.49059; 6231658.7136621
2850.28; 104.21775; 6231764.802838
2851.30; 103.68451; 6231870.3491979
2852.32; 102.94825; 6231975.1460785
2853.33; 102.08155; 6232079.0606898
2854.35; 101.18031; 6232182.0578793
2855.37; 100.35766; 6232284.2176481
2856.39; 99.721518; 6232385.7298506
2857.40; 99.343175; 6232486.8569156
2858.42; 99.230415; 6232587.8691962
2859.44; 99.318832; 6232688.9714815
2860.46; 99.488713; 6232790.246698
2861.48; 99.604604; 6232891.6398869
2862.49; 99.564815; 6232992.9925726
2863.51; 99.342961; 6233094.1194205
2864.53; 99.005574; 6233194.9028222
2865.55; 98.698204; 6233295.3733349
2866.57; 98.604054; 6233395.748007
2867.58; 98.889279; 6233496.413026
2868.60; 99.653738; 6233597.8562307
2869.62; 100.90331; 6233700.5714443
2870.64; 102.55126; 6233804.9641984
2871.66; 104.44516; 6233911.2848676
2872.67; 106.40714; 6234019.6027477
2873.69; 108.27194; 6234129.8189094
2874.71; 109.9108; 6234241.7033648
2875.73; 111.23707; 6234354.9379004
2876.75; 112.19804; 6234469.1506618
2877.76; 112.76345; 6234583.9389897
2878.78; 112.92076; 6234698.887449
2879.80; 112.68219; 6234813.5930583
2880.82; 112.10072; 6234927.7067523
2881.84; 111.2853; 6235040.9903875
2882.85; 110.40388; 6235153.3767693
2883.87; 109.66606; 6235265.0120835
2884.89; 109.28564; 6235376.2601442
2885.91; 109.43174; 6235487.6569328
2886.93; 110.18349; 6235599.8189705
2887.94; 111.50327; 6235713.324489
2888.96; 113.23834; 6235828.5962284
2889.98; 115.15138; 6235945.8153639
2891.00; 116.97172; 6236064.8875295
2892.02; 118.45305; 6236185.4676227
2893.03; 119.42321; 6236307.0352922
2894.05; 119.8157; 6236429.0025057
2895.07; 119.67924; 6236550.8308113
2896.09; 119.16763; 6236672.1383133
2897.11; 118.51576; 6236792.7822443
2898.12; 118.00773; 6236912.9090201
2899.14; 117.94083; 6237032.9676953
2900.16; 118.58751; 6237153.6846618
2901.18; 120.15661; 6237275.9989034
2902.19; 122.75702; 6237400.9602514
2903.21; 126.36954; 6237529.5989881
2904.23; 130.83461; 6237662.7829721
2905.25; 135.86288; 6237801.0855235
2906.27; 141.07148; 6237944.6901981
2907.28; 146.04214; 6238093.3547918
2908.30; 150.39079; 6238246.4461278
2909.32; 153.83319; 6238403.0416745
2910.34; 156.23094; 6238562.078027
2911.36; 157.60631; 6238722.5144459
2912.37; 158.12175; 6238883.4755648
2913.39; 158.02914; 6239044.3424116
2914.41; 157.60142; 6239204.77386
2915.43; 157.06408; 6239364.6583155
2916.45; 156.54412; 6239524.0134791
2917.46; 156.05035; 6239682.8660013
2918.48; 155.49098; 6239841.1491114
2919.50; 154.72529; 6239998.65278
2920.52; 153.63598; 6240155.0475801
2921.54; 152.20187; 6240309.9825117
2922.55; 150.54751; 6240463.2333823
2923.57; 148.95033; 6240614.8583864
2924.59; 147.79572; 6240765.3080529
2925.61; 147.48614; 6240915.4425746
2926.63; 148.3255; 6241066.431532
2927.64; 150.41217; 6241219.5446304
2928.66; 153.57555; 6241375.8779183
2929.68; 157.38225; 6241536.0862548
2930.70; 161.21811; 6241700.1993388
2931.72; 164.42882; 6241867.5807788
2932.73; 166.48073; 6242037.0509778
2933.75; 167.09483; 6242207.1462992
2934.77; 166.31201; 6242376.4447529
2935.79; 164.46883; 6242543.8669233
2936.81; 162.09062; 6242708.8681797
2937.82; 159.73609; 6242871.4726296
2938.84; 157.84248; 6243032.1494681
2939.86; 156.61948; 6243191.5813429
2940.88; 156.02253; 6243350.4055459
2941.90; 155.80882; 6243509.0122012
2942.91; 155.65187; 6243667.4590846
2943.93; 155.27266; 6243825.519951
2944.95; 154.54272; 6243982.8377702
2945.97; 153.52694; 6244139.121573
2946.99; 152.45646; 6244294.315666
2948.00; 151.64545; 6244448.6841918
2949.02; 151.383; 6244602.7855528
2950.04; 151.83617; 6244757.3482201
2951.06; 152.99416; 6244913.0896723
2952.07; 154.66808; 6245070.5350988
2953.09; 156.54328; 6245229.8894032
2954.11; 158.26658; 6245390.9979524
2955.13; 159.54236; 6245553.4051856
2956.15; 160.21134; 6245716.4934213
2957.16; 160.29193; 6245879.6636877
2958.18; 159.97418; 6246042.510502
2959.20; 159.56908; 6246204.9449427
2960.22; 159.42654; 6246367.2342834
2961.24; 159.84421; 6246529.9487959
2962.25; 160.99221; 6246693.8319156
2963.27; 162.87554; 6246859.6321839
2964.29; 165.34615; 6247027.9474319
2965.31; 168.16159; 6247199.1286725
2966.33; 171.07176; 6247373.2723418
2967.34; 173.90448; 6247550.299599
2968.36; 176.61887; 6247730.0899854
2969.38; 179.30583; 6247912.6155858
2970.40; 182.13418; 6248098.0203221
2971.42; 185.2628; 6248286.6098564
2972.43; 188.7553; 6248478.7546068
2973.45; 192.53586; 6248674.7478028
2974.47; 196.41109; 6248874.6858191
2975.49; 200.15674; 6249078.4367444
2976.51; 203.63925; 6249285.7327155
2977.52; 206.92324; 6249496.3716444
2978.54; 210.31542; 6249710.463669
2979.56; 214.31614; 6249928.6282491
2980.58; 219.48443; 6250152.0539288
2981.60; 226.25864; 6250382.3754616
2982.61; 234.79652; 6250621.3881867
2983.63; 244.897; 6250870.6827646
2984.65; 256.03881; 6251131.3192294
2985.67; 267.52878; 6251403.6519853
2986.69; 278.71097; 6251687.3677256
2987.70; 289.16401; 6251981.7242075
2988.72; 298.81761; 6252285.9076363
2989.74; 307.94992; 6252599.3873653
2990.76; 317.07274; 6252922.1537363
2991.78; 326.7534; 6253254.774593
2992.79; 337.44342; 6253598.2774288
2993.81; 349.37668; 6253953.9278147
2994.83; 362.56666; 6254323.005027
2995.85; 376.88892; 6254706.6616832
2996.86; 392.19971; 6255105.9040668
2997.88; 408.42945; 6255521.6676231
2998.90; 425.60661; 6255954.9167893
2999.92; 443.80473; 6256406.6908484
3000.94; 463.04561; 6256878.0512947
3001.95; 483.2168; 6257369.9451503
3002.97; 504.05756; 6257883.0539908
3003.99; 525.23585; 6258417.721419
3005.01; 546.49246; 6258974.0271641
3006.03; 567.78723; 6259552.0100644
3007.04; 589.36813; 6260151.9613911
3008.06; 611.70499; 6260774.6506751
3009.08; 635.28105; 6261421.3393664
3010.10; 660.29842; 6262093.4946611
3011.12; 686.40148; 6262792.2217516
3012.13; 712.5337; 6263517.5503141
3013.15; 737.00954; 6264267.794218
3014.17; 757.81333; 6265039.2154831
3015.19; 773.05533; 6265826.1524471
3016.21; 781.45215; 6266621.6370162
3017.22; 782.67987; 6267418.3713515
3018.24; 777.48206; 6268209.8145341
3019.26; 767.49202; 6268991.0882917
3020.28; 754.82159; 6269759.4640937
3021.30; 741.5444; 6270514.3242891
3022.31; 729.23316; 6271256.6521739
3023.33; 718.68615; 6271988.2436574
3024.35; 709.9088; 6272710.9001786
3025.37; 702.32752; 6273425.8392853
3026.39; 695.13807; 6274133.4598442
3027.40; 687.65629; 6274833.4642687
3028.42; 679.5549; 6275525.2218361
3029.44; 670.92711; 6276208.196679
3030.46; 662.18995; 6276882.277469
3031.48; 653.89945; 6277547.9188902
3032.49; 646.57147; 6278206.1007472
3033.51; 640.58233; 6278858.1859128
3034.53; 636.17316; 6279505.7827328
3035.55; 633.52655; 6280150.6854179
3036.57; 632.8487; 6280794.8980886
3037.58; 634.3913; 6281440.6810524
3038.60; 638.38227; 6282090.5266546
3039.62; 644.88696; 6282746.993755
3040.64; 653.66407; 6283412.3955698
3041.66; 664.09361; 6284088.4142114
3042.67; 675.22888; 6284775.7680778
3043.69; 685.97138; 6285474.057345
3044.71; 695.3119; 6286181.8548531
3045.73; 702.54805; 6286897.0184537
3046.74; 707.39614; 6287617.1172026
3047.76; 709.96075; 6288339.8266133
3048.78; 710.58945; 6289063.1760144
3049.80; 709.69212; 6289785.6119642
3050.82; 707.61901; 6290505.9375838
3051.83; 704.6602; 6291223.2512603
3052.85; 701.16334; 6291937.0052816
3053.87; 697.69838; 6292647.2321225
3054.89; 695.15945; 6293354.8744426
3055.91; 694.70869; 6294062.0579079
3056.92; 697.53234; 6294772.115733
3057.94; 704.47015; 6295489.2359487
3058.96; 715.6545; 6296217.7413526
3059.98; 730.31912; 6296961.1746971
3061.00; 746.89124; 6297721.4777467
3062.01; 763.37969; 6298498.565326
3063.03; 777.95179; 6299290.4866744
3064.05; 789.50501; 6300094.1687087
3065.07; 798.02254; 6300906.5212135
3066.09; 804.56774; 6301725.5364517
3067.10; 810.89923; 6302550.9968755
3068.12; 818.82768; 6303384.5281194
3069.14; 829.53493; 6304228.9588849
3070.16; 843.09558; 6305087.1938065
3071.18; 858.37323; 6305960.9807098
3072.19; 873.33359; 6306849.9966216
3073.21; 885.67316; 6307751.5736822
3074.23; 893.55682; 6308661.1759647
3075.25; 896.22722; 6309573.4966013
3076.27; 894.29836; 6310483.8537406
3077.28; 889.65371; 6311389.4828306
3078.30; 884.99429; 6312290.3688315
3079.32; 883.18125; 6313189.409233
3080.34; 886.56298; 6314091.8920922
3081.36; 896.46134; 6315004.4510536
3082.37; 912.92983; 6315933.7742285
3083.39; 934.81458; 6316885.3751354
3084.41; 960.07277; 6317862.6877858
3085.43; 986.2512; 6318866.6489464
3086.45; 1011.0062; 6319895.8096201
3087.46; 1032.5517; 6320946.9027346
3088.48; 1049.9486; 6322015.7051143
3089.50; 1063.185; 6323097.9815392
3090.52; 1073.0435; 6324190.2935323
3091.53; 1080.7952; 6325290.4964046
3092.55; 1087.799; 6326397.8288761
3093.57; 1095.1113; 6327512.6049495
3094.59; 1103.2081; 6328635.6232361
3095.61; 1111.8963; 6329767.4857098
3096.62; 1120.4359; 6330908.0411429
3097.64; 1127.834; 6332056.1274788
3098.66; 1133.2152; 6333209.691663
3099.68; 1136.1507; 6334366.2440449
3100.70; 1136.839; 6335523.4970941
3101.71; 1136.0835; 6336679.9811126
3102.73; 1135.0784; 6337835.4419534
3103.75; 1135.0774; 6338990.9017201
3104.77; 1137.0548; 6340148.374442
3105.79; 1141.4629; 6341310.3343768
3106.80; 1148.1469; 6342479.0983494
3107.82; 1156.4225; 6343656.2865568
3108.84; 1165.263; 6344842.4739688
3109.86; 1173.5164; 6346037.0630586
3110.88; 1180.08; 6347238.3335326
3111.89; 1183.9915; 6348443.5857805
3112.91; 1184.4493; 6349649.3040193
3113.93; 1180.8051; 6350851.3126469
3114.95; 1172.5894; 6352044.9580368
3115.97; 1159.6046; 6353225.3854703
3116.98; 1142.0798; 6354387.9734734
3118.00; 1120.8313; 6355528.9313235
3119.02; 1097.3421; 6356645.9782501
3120.04; 1073.6816; 6357738.9398222
3121.06; 1052.2224; 6358810.0567882
3122.07; 1035.1857; 6359863.831199
3123.09; 1024.1162; 6360906.3372863
3124.11; 1019.4328; 6361944.0758411
3125.13; 1020.209; 6362982.6045486
3126.15; 1024.2823; 6364025.2796846
3127.16; 1028.7032; 6365072.4551502
3128.18; 1030.4307; 6366121.3891568
3129.20; 1027.0956; 6367166.9281477
3130.22; 1017.6219; 6368202.8233264
3131.24; 1002.5278; 6369223.3533708
3132.25; 983.81625; 6370224.8358634
3133.27; 964.48516; 6371206.6401401
3134.29; 947.79779; 6372171.4573875
3135.31; 936.52121; 6373124.795571
3136.33; 932.34444; 6374073.8819774
3137.34; 935.6281; 6375026.3110115
3138.36; 945.53754; 6375988.8274295
3139.38; 960.50194; 6376966.5769571
3140.40; 978.85712; 6377963.0112644
3141.41; 999.48863; 6378980.447561
3142.43; 1022.2995; 6380021.1043723
3143.45; 1048.375; 6381088.3048353
3144.47; 1079.787; 6382187.4814411
3145.49; 1119.0637; 6383326.6400487
3146.50; 1168.4218; 6384516.0430301
3147.52; 1228.9289; 6385767.0396193
3148.54; 1299.804; 6387090.1840083
3149.56; 1378.0729; 6388493.0027196
3150.58; 1458.7537; 6389977.9510812
3151.59; 1535.6477; 6391541.1741999
3152.61; 1602.6559; 6393172.6087769
3153.63; 1655.3743; 6394857.7083933
3154.65; 1692.577; 6396580.6787003
3155.67; 1717.1469; 6398328.6601533
3156.68; 1736.0899; 6400095.9247827
3157.70; 1759.4726; 6401886.9919428
3158.72; 1798.4157; 6403717.7015306
3159.74; 1862.5645; 6405613.7118172
3160.76; 1957.6501; 6407606.5151936
3161.77; 2083.7836; 6409727.7170185
3162.79; 2234.9582; 6412002.8080134
3163.81; 2399.9282; 6414445.8313886
3164.83; 2564.2729; 6417056.1505937
3165.85; 2713.1548; 6419818.0251489
3166.86; 2834.1371; 6422703.054432
3167.88; 2919.4632; 6425674.9419448
3168.90; 2967.3973; 6428695.6243266
3169.92; 2982.4974; 6431731.6779333
3170.94; 2974.9427; 6434760.0412097
3171.95; 2959.198; 6437772.3770485
3172.97; 2952.3291; 6440777.7206533
3173.99; 2972.2208; 6443803.3131367
3175.01; 3035.8384; 6446893.6655919
3176.03; 3157.5875; 6450107.9534154
3177.04; 3347.7997; 6453515.8690517
3178.06; 3611.4119; 6457192.1305203
3179.08; 3946.9841; 6461209.9899902
3180.10; 4346.264; 6465634.2991871
3181.12; 4794.5155; 6470514.9090794
3182.13; 5271.7554; 6475881.328579
3183.15; 5754.8959; 6481739.5642356
3184.17; 6220.5972; 6488071.8637817
3185.19; 6648.4417; 6494839.6905148
3186.20; 7023.8949; 6501989.7124145
3187.22; 7340.4692; 6509461.9932686
3188.24; 7600.5715; 6517199.0470671
3189.26; 7814.7202; 6525154.0950136
3190.28; 7999.1267; 6533296.860782
3191.29; 8172.0105; 6541615.6148022
3192.31; 8349.365; 6550114.9080805
3193.33; 8541.1147; 6558809.3942918
3194.35; 8748.6172; 6567715.1091185
3195.37; 8964.2184; 6576840.2966772
3196.38; 9173.0951; 6586178.1116597
3197.40; 9357.0248; 6595703.1590909
3198.42; 9499.1712; 6605372.9055012
3199.44; 9588.6394; 6615133.7266698
3200.46; 9623.5583; 6624930.093715
3201.47; 9611.8188; 6634714.5104776
3202.49; 9569.2309; 6644455.5746497
3203.51; 9515.5828; 6654142.0273664
3204.53; 9469.6702; 6663781.7430177
3205.55; 9444.6358; 6673395.9746677
3206.56; 9444.8411; 6683010.4153688
3207.58; 9465.0385; 6692645.4161192
3208.60; 9491.9638; 6702307.8256837
3209.62; 9507.8391; 6711986.3956483
3210.64; 9494.8219; 6721651.7146066
3211.65; 9439.2756; 6731260.4898502
3212.67; 9334.8667; 6740762.98138
3213.69; 9183.8411; 6750111.7352905
3214.71; 8996.2897; 6759269.570029
3215.73; 8787.665; 6768215.0337444
3216.74; 8575.1656; 6776944.1823239
3217.76; 8373.8333; 6785468.3832961
3218.78; 8193.2546; 6793808.7628927
3219.80; 8035.6465; 6801988.704245
3220.82; 7895.8121; 6810026.3002689
3221.83; 7763.0233; 6817928.7230257
3222.85; 7624.3913; 6825690.0243187
3223.87; 7468.8414; 6833292.9825508
3224.89; 7290.557; 6840714.4550011
3225.91; 7090.8156; 6847932.5993223
3226.92; 6877.5504; 6854933.6488235
3227.94; 6662.6483; 6861715.9372691
3228.96; 6457.748; 6868289.6460555
3229.98; 6269.871; 6874672.1041634
3231.00; 6098.3809; 6880879.9927829
3232.01; 5934.415; 6886920.9711883
3233.03; 5763.1487; 6892787.6078307
3234.05; 5568.2882; 6898455.8849438
3235.07; 5337.3794; 6903889.1068903
3236.08; 5066.1739; 6909046.2533488
3237.10; 4760.5629; 6913892.3009678
3238.12; 4435.3915; 6918407.3381656
3239.14; 4110.5296; 6922591.6799052
3240.16; 3805.5099; 6926465.5247503
3241.17; 3534.5153; 6930063.5087972
3242.19; 3303.3252; 6933426.1513324
3243.21; 3109.0968; 6936591.0777449
3244.23; 2942.834; 6939586.7557813
3245.25; 2793.4735; 6942430.3912488
3246.26; 2652.0268; 6945130.0401248
3247.28; 2514.3211; 6947689.5105451
3248.30; 2381.5087; 6950113.783629
3249.32; 2258.4029; 6952412.7403108
3250.34; 2150.4952; 6954601.8515878
3251.35; 2060.9237; 6956699.782948
3252.37; 1988.5698; 6958724.0612236
3253.39; 1927.9315; 6960686.6123009
3254.41; 1870.6961; 6962590.9001716
3255.43; 1808.3072; 6964431.6788468
3256.44; 1734.5152; 6966197.3404587
3257.46; 1647.0069; 6967873.9224559
3258.48; 1547.6438; 6969449.3570759
3259.50; 1441.3958; 6970916.6357651
3260.52; 1334.5166; 6972275.1160928
3261.53; 1232.698; 6973529.949425
3262.55; 1139.8268; 6974690.2438877
3263.57; 1057.6392; 6975766.8749435
3264.59; 986.17166; 6976770.7551355
3265.61; 924.62305; 6977711.9815003
3266.62; 872.15866; 6978599.8013798
3267.64; 828.31044; 6979442.9856694
3268.66; 792.87701; 6980250.1002471
3269.68; 765.47818; 6981029.3240055
3270.70; 745.06618; 6981787.769225
3271.71; 729.6885; 6982530.5606351
3272.73; 716.65965; 6983260.0892378
3273.75; 703.10263; 6983975.8173746
3274.77; 686.65745; 6984674.8050283
3275.79; 666.08687; 6985352.8527191
3276.80; 641.55692; 6986005.9299839
3277.82; 614.50053; 6986631.4650059
3278.84; 587.12591; 6987229.1338448
3279.86; 561.74708; 6987800.9681289
3280.87; 540.15354; 6988350.821124
3281.89; 523.19759; 6988883.4136923
3282.91; 510.68653; 6989403.2705476
3283.93; 501.56404; 6989913.8411005
3284.95; 494.28565; 6990417.002562
3285.96; 487.25816; 6990913.0103403
3286.98; 479.22116; 6991400.8367995
3288.00; 469.48736; 6991878.7546737
3289.02; 458.00826; 6992344.9873203
3290.04; 445.27732; 6992798.2604146
3291.05; 432.11616; 6993238.1360145
3292.07; 419.40808; 6993665.0753403
3293.09; 407.84801; 6994080.2470196
3294.11; 397.76998; 6994485.1596962
3295.13; 389.09261; 6994881.2391801
3296.14; 381.39237; 6995269.4801551
3297.16; 374.07857; 6995650.2759946
3298.18; 366.61292; 6996023.4721228
3299.20; 358.7009; 6996388.6141652
3300.22; 350.38913; 6996745.295184
3301.23; 342.03316; 6997093.4701795
3302.25; 334.14514; 6997433.6155128
3303.27; 327.17455; 6997766.6650829
3304.29; 321.30174; 6998093.7363906
3305.31; 316.32282; 6998415.7393715
3306.32; 311.67375; 6998733.009795
3307.34; 306.59306; 6999045.1083028
3308.36; 300.37273; 6999350.8747837
3309.38; 292.61385; 6999648.7430557
3310.40; 283.39995; 6999937.2319719
3311.41; 273.32652; 7000215.466574
3312.43; 263.37185; 7000483.5677503
3313.45; 254.64517; 7000742.7855452
3314.47; 248.08674; 7000995.3271376
3315.49; 244.20839; 7001243.9207362
3316.50; 242.9497; 7001491.2330512
3317.52; 243.68916; 7001739.2981031
3318.54; 245.40383; 7001989.1086146
3319.56; 246.92942; 7002240.47211
3320.58; 247.24633; 7002492.1582088
3321.59; 245.71362; 7002742.2840745
3322.61; 242.19095; 7002988.8240153
3323.63; 237.02266; 7003230.1028596
3324.65; 230.89754; 7003465.1465945
3325.67; 224.63175; 7003693.8120204
3326.68; 218.94104; 7003916.6845506
3327.70; 214.26745; 7004134.799572
3328.72; 210.70552; 7004349.2886958
3329.74; 208.04061; 7004561.0650564
3330.75; 205.87719; 7004770.6391491
3331.77; 203.80821; 7004978.1071096
3332.79; 201.56698; 7005183.2936017
3333.81; 199.11211; 7005385.9811357
3334.83; 196.62078; 7005586.1326022
3335.84; 194.39779; 7005784.0211615
3336.86; 192.73546; 7005980.2175446
3337.88; 191.7749; 7006175.4361216
3338.90; 191.41673; 7006370.290092
3339.92; 191.31137; 7006565.0368108
3340.93; 190.93213; 7006759.3974828
3341.95; 189.70764; 7006952.5116732
3342.97; 187.17272; 7007143.0454223
3343.99; 183.0931; 7007329.4263002
3345.01; 177.5294; 7007510.1435676
3346.02; 170.82525; 7007684.0362984
3347.04; 163.52681; 7007850.4995393
3348.06; 156.25871; 7008009.5641663
3349.08; 149.59083; 7008161.8411765
3350.10; 143.92965; 7008308.3553477
3351.11; 139.45809; 7008450.3176606
3352.13; 136.13319; 7008588.8953687
3353.15; 133.73544; 7008725.0322781
3354.17; 131.95117; 7008859.3528732
3355.19; 130.46284; 7008992.1584185
3356.20; 129.02303; 7009123.4983005
3357.22; 127.49456; 7009253.2822577
3358.24; 125.85097; 7009381.3931103
3359.26; 124.14374; 7009507.7660786
3360.28; 122.45201; 7009632.4169389
3361.29; 120.83459; 7009755.4213412
3362.31; 119.30104; 7009876.8646558
3363.33; 117.80984; 7009996.7899889
3364.35; 116.29087; 7010115.1690763
3365.37; 114.68006; 7010231.908429
3366.38; 112.95015; 7010346.8868054
3367.40; 111.12443; 7010460.0066756
3368.42; 109.26851; 7010571.2373069
3369.44; 107.46516; 7010680.6322057
3370.46; 105.78445; 7010788.3162087
3371.47; 104.26309; 7010894.4515393
3372.49; 102.90177; 7010999.2010994
3373.51; 101.68003; 7011102.7069817
3374.53; 100.57979; 7011205.0928632
3375.54; 99.60364; 7011306.4850708
3376.56; 98.776682; 7011407.0354704
3377.58; 98.128294; 7011506.925839
3378.60; 97.660789; 7011606.3403077
3379.62; 97.319393; 7011705.4072502
3380.63; 96.979569; 7011804.1282665
3381.65; 96.461862; 7011902.322279
3382.67; 95.573577; 7011999.6120567
3383.69; 94.165207; 7012095.4681744
3384.71; 92.182372; 7012189.3058518
3385.72; 89.694327; 7012280.6108066
3386.74; 86.887682; 7012369.0587172
3387.76; 84.025983; 7012454.5935415
3388.78; 81.387455; 7012537.4424582
3389.80; 79.200095; 7012618.0647377
3390.81; 77.593174; 7012697.0512401
3391.83; 76.577505; 7012775.0038356
3392.85; 76.05671; 7012852.4262845
3393.87; 75.861993; 7012929.65052
3394.89; 75.79721; 7013006.8088086
3395.90; 75.680571; 7013083.8483644
3396.92; 75.373466; 7013160.5752999
3397.94; 74.793164; 7013236.7115138
3398.96; 73.911867; 7013311.9506054
3399.98; 72.74759; 7013386.0045123
3400.99; 71.352356; 7013458.6381317
3402.01; 69.800965; 7013529.6925017
3403.03; 68.180878; 7013599.0976936
3404.05; 66.58217; 7013666.8754695
3405.07; 65.086537; 7013733.1307559
3406.08; 63.755879; 7013798.0314895
3407.10; 62.622696; 7013861.7786915
3408.12; 61.685451; 7013924.5718188
3409.14; 60.911323; 7013986.5769176
3410.16; 60.24664; 7014047.9053972
3411.17; 59.632575; 7014108.6087849
3412.19; 59.021592; 7014168.6902187
3413.21; 58.389552; 7014228.1282634
3414.23; 57.73969; 7014286.9047762
3415.25; 57.097361; 7014345.0274256
3416.26; 56.497551; 7014402.5394942
3417.28; 55.969505; 7014459.5140352
3418.30; 55.523671; 7014516.0347359
3419.32; 55.145167; 7014572.1701366
3420.34; 54.795697; 7014627.9497919
3421.35; 54.42296; 7014683.3500164
3422.37; 53.974317; 7014738.293542
3423.39; 53.410365; 7014792.6629885
3424.41; 52.714473; 7014846.3240477
3425.42; 51.896032; 7014899.151969
3426.44; 50.987328; 7014951.0548689
3427.46; 50.035952; 7015001.9893091
3428.48; 49.095629; 7015051.9665404
3429.50; 48.218211; 7015101.0505987
3430.51; 47.448415; 7015149.3510376
3431.53; 46.82128; 7015197.0130807
3432.55; 46.361081; 7015244.2066607
3433.57; 46.079951; 7015291.1140629
3434.59; 45.975114; 7015337.9147454
3435.60; 46.02494; 7015384.766148
3436.62; 46.185536; 7015431.7810305
3437.64; 46.390432; 7015479.0044882
3438.66; 46.555616; 7015526.3960968
3439.68; 46.590709; 7015573.8234281
3440.69; 46.414789; 7015621.0716808
3441.71; 45.973266; 7015667.8704815
3442.73; 45.251013; 7015713.9340604
3443.75; 44.277473; 7015759.0066177
3444.77; 43.121495; 7015802.9024385
3445.78; 41.876792; 7015845.531206
3446.80; 40.641938; 7015886.9029451
3447.82; 39.500625; 7015927.1128773
3448.84; 38.50787; 7015966.3122274
3449.86; 37.685719; 7016004.6746627
3450.87; 37.028711; 7016042.3682928
3451.89; 36.515956; 7016079.5399601
3452.91; 36.124526; 7016116.3131688
3453.93; 35.838792; 7016152.7955122
3454.95; 35.652269; 7016189.0879832
3455.96; 35.561849; 7016225.2884115
3456.98; 35.557536; 7016261.4844487
3458.00; 35.612761; 7016297.7367026
3459.02; 35.680258; 7016334.0576657
3460.04; 35.696293; 7016370.3949512
3461.05; 35.592767; 7016406.6268522
3462.07; 35.313575; 7016442.5745473
3463.09; 34.82983; 7016478.0298108
3464.11; 34.148892; 7016512.7919091
3465.13; 33.314254; 7016546.7043821
3466.14; 32.396453; 7016579.6825729
3467.16; 31.478013; 7016611.725832
3468.18; 30.636984; 7016642.9129594
3469.20; 29.933446; 7016673.3839162
3470.21; 29.401794; 7016703.3136741
3471.23; 29.049327; 7016732.8846356
3472.25; 28.859812; 7016762.2626791
3473.27; 28.799713; 7016791.5795438
3474.29; 28.824942; 7016820.9220908
3475.30; 28.886906; 7016850.3277144
3476.32; 28.937592; 7016879.7849345
3477.34; 28.934057; 7016909.2385561
3478.36; 28.842622; 7016938.5991004
3479.38; 28.642629; 7016967.7560608
3480.39; 28.32912; 7016996.5938828
3481.41; 27.913663; 7017025.0087876
3482.43; 27.422926; 7017052.9241427
3483.45; 26.895223; 7017080.3023193
3484.47; 26.375866; 7017107.1518129
3485.48; 25.912295; 7017133.5294112
3486.50; 25.549696; 7017159.5378993
3487.52; 25.327218; 7017185.3199144
3488.54; 25.274462; 7017211.0482264
3489.56; 25.407897; 7017236.9123688
3490.57; 25.727343; 7017263.1016935
3491.59; 26.213396; 7017289.7857994
3492.61; 26.827115; 7017317.0946444
3493.63; 27.513151; 7017345.1018448
3494.65; 28.206585; 7017373.8149315
3495.66; 28.842384; 7017403.1752338
3496.68; 29.365224; 7017433.0677647
3497.70; 29.73703; 7017463.3387783
3498.72; 29.940213; 7017493.8166229
3499.74; 29.976124; 7017524.3310238
3500.75; 29.859997; 7017554.7272122
3501.77; 29.614825; 7017584.8738261
3502.79; 29.266741; 7017614.6661059
3503.81; 28.843367; 7017644.0274085
3504.83; 28.374837; 7017672.9117682
3505.84; 27.895635; 7017701.3083209
3506.86; 27.444691; 7017729.2458319
3507.88; 27.061886; 7017756.7936643
3508.90; 26.780831; 7017784.0553944
3509.92; 26.619825; 7017811.1532276
3510.93; 26.574358; 7017838.2047775
3511.95; 26.614582; 7017865.2972736
3512.97; 26.689832; 7017892.4663704
3513.99; 26.739882; 7017919.6864165
3515.00; 26.710152; 7017946.8761991
3516.02; 26.566437; 7017973.9196854
3517.04; 26.304602; 7018000.6966347
3518.06; 25.952082; 7018027.1147343
3519.08; 25.560466; 7018053.1341859
3520.09; 25.19112; 7018078.7776593
3521.11; 24.897846; 7018104.1225919
3522.13; 24.711372; 7018129.2777024
3523.15; 24.629925; 7018154.3499032
3524.17; 24.618434; 7018179.4104065
3525.18; 24.616671; 7018204.4691148
3526.20; 24.554347; 7018229.4643803
3527.22; 24.369479; 7018254.2714582
3528.24; 24.025497; 7018278.7283776
3529.26; 23.522781; 7018302.6735538
3530.27; 22.901518; 7018325.9863111
3531.29; 22.234758; 7018348.6203348
3532.31; 21.612905; 7018370.6213393
3533.33; 21.123114; 7018392.1237575
3534.35; 20.828544; 7018413.3263163
3535.36; 20.752778; 7018434.4517492
3536.38; 20.873613; 7018455.7001868
3537.40; 21.128121; 7018477.207702
3538.42; 21.4279; 7018499.0203799
3539.44; 21.680596; 7018521.0902907
3540.45; 21.811939; 7018543.2939035
3541.47; 21.782393; 7018565.46744
3542.49; 21.594003; 7018587.4492028
3543.51; 21.285917; 7018609.1173479
3544.53; 20.920352; 7018630.4133633
3545.54; 20.563434; 7018651.3460515
3546.56; 20.266687; 7018671.9766645
3547.58; 20.054385; 7018692.3911629
3548.60; 19.919927; 7018712.6687894
3549.62; 19.831482; 7018732.8563828
3550.63; 19.744328; 7018752.9552567
3551.65; 19.615553; 7018772.9230431
3552.67; 19.416491; 7018792.6881935
3553.69; 19.13947; 7018812.1713481
3554.71; 18.797606; 7018831.3064996
3555.72; 18.418725; 7018850.0559667
3556.74; 18.03618; 7018868.4160192
3557.76; 17.679928; 7018886.4134235
3558.78; 17.370634; 7018904.095979
3559.80; 17.118071; 7018921.521437
3560.81; 16.923443; 7018938.7487716
3561.83; 16.78385; 7018955.8340067
3562.85; 16.696678; 7018972.8305048
3563.87; 16.662003; 7018989.7917047
3564.88; 16.68215; 7019006.7734134
3565.90; 16.758774; 7019023.8331224
3566.92; 16.888769; 7019041.0251608
3567.94; 17.06071; 7019058.3922271
3568.96; 17.253278; 7019075.9553195
3569.97; 17.436415; 7019093.7048371
3570.99; 17.575065; 7019111.5954945
3572.01; 17.634677; 7019129.5468345
3573.03; 17.587238; 7019147.4498837
3574.05; 17.416607; 7019165.1792376
3575.06; 17.122156; 7019182.6088532
3576.08; 16.720089; 7019199.6291826
3577.10; 16.242159; 7019216.1629997
3578.12; 15.731831; 7019232.1773244
3579.14; 15.238287; 7019247.6892433
3580.15; 14.809037; 7019262.7642042
3581.17; 14.48228; 7019277.5065404
3582.19; 14.280497; 7019292.0434699
3583.21; 14.206754; 7019306.5053329
3584.23; 14.244835; 7019321.0059598
3585.24; 14.363478; 7019335.6273604
3586.26; 14.523938; 7019350.4121026
3587.28; 14.688994; 7019365.3648641
3588.30; 14.83095; 7019380.4621309
3589.32; 14.936292; 7019395.666632
3590.33; 15.005591; 7019410.9416766
3591.35; 15.048767; 7019426.2606717
3592.37; 15.077453; 7019441.6088685
3593.39; 15.097334; 7019456.9773035
3594.41; 15.103495; 7019472.3520092
3595.42; 15.080906; 7019487.7037204
3596.44; 15.010343; 7019502.9836021
3597.46; 14.877925; 7019518.1286877
3598.48; 14.684837; 7019533.0772183
3599.50; 14.453312; 7019547.7900665
3600.51; 14.225837; 7019562.2713549
3601.53; 14.056705; 7019576.5804737
3602.55; 13.99769; 7019590.8295181
3603.57; 14.081925; 7019605.1643105
3604.59; 14.3111; 7019619.7323923
3605.60; 14.65048; 7019634.6459491
3606.62; 15.03404; 7019649.9499528
3607.64; 15.378854; 7019665.6049623
3608.66; 15.604985; 7019681.4901639
3609.67; 15.65522; 7019697.4265024
3610.69; 15.509007; 7019713.2140027
3611.71; 15.186714; 7019728.6734224
3612.73; 14.743306; 7019743.6814715
3613.75; 14.253737; 7019758.1911608
3614.76; 13.794679; 7019772.2335483
3615.78; 13.427923; 7019785.9025945
3616.80; 13.189821; 7019799.3292635
3617.82; 13.08879; 7019812.6530871
3618.84; 13.110218; 7019825.9987234
3619.85; 13.225917; 7019839.4621366
3620.87; 13.40429; 7019853.1071256
3621.89; 13.61783; 7019866.9694888
3622.91; 13.846124; 7019881.0642454
3623.93; 14.074488; 7019895.391467
3624.94; 14.290018; 7019909.938089
3625.96; 14.477616; 7019924.675677
3626.98; 14.618273; 7019939.5564479
3628.00; 14.690788; 7019954.5110356
3629.02; 14.676596; 7019969.451177
3630.03; 14.566122; 7019984.2788603
3631.05; 14.364352; 7019998.901151
3632.07; 14.093466; 7020013.2476908
3633.09; 13.791146; 7020027.2864828
3634.11; 13.504487; 7020041.0334675
3635.12; 13.280668; 7020054.5526142
3636.14; 13.156623; 7020067.9454891
3637.16; 13.150303; 7020081.33193
3638.18; 13.255899; 7020094.8258627
3639.20; 13.444492; 7020108.511775
3640.21; 13.670231; 7020122.4274799
3641.23; 13.880702; 7020136.5574354
3642.25; 14.028967; 7020150.838318
3643.27; 14.084182; 7020165.175407
3644.29; 14.037989; 7020179.4654736
3645.30; 13.904955; 7020193.6201176
3646.32; 13.716992; 7020207.5834238
3647.34; 13.513417; 7020221.3394991
3648.36; 13.3296; 7020234.9084563
3649.38; 13.187566; 7020248.3328291
3650.39; 13.091279; 7020261.6591857
3651.41; 13.027844; 7020274.9209682
3652.43; 12.973987; 7020288.1279269
3653.45; 12.905501; 7020301.2651699
3654.47; 12.806467; 7020314.3016005
3655.48; 12.675238; 7020327.2044456
3656.50; 12.525338; 7020339.9546987
3657.52; 12.381171; 7020352.5581967
3658.54; 12.270162; 7020365.0486919
3659.55; 12.214048; 7020377.4820656
3660.57; 12.222237; 7020389.9237759
3661.59; 12.289312; 7020402.4337648
3662.61; 12.397308; 7020415.0536897
3663.63; 12.521811; 7020427.800353
3664.64; 12.639672; 7020440.6669935
3665.66; 12.735757; 7020453.6314448
3666.68; 12.806557; 7020466.6679668
3667.70; 12.859606; 7020479.7584907
3668.72; 12.909082; 7020492.8993795
3669.73; 12.969158; 7020506.1014224
3670.75; 13.047361; 7020519.3830732
3671.77; 13.140173; 7020532.7592024
3672.79; 13.232335; 7020546.2291483
3673.81; 13.300239; 7020559.7682173
3674.82; 13.318527; 7020573.3259033
3675.84; 13.268095; 7020586.8322512
3676.86; 13.143224; 7020600.2114857
3677.88; 12.955764; 7020613.3998941
3678.90; 12.73497; 7020626.3635436
3679.91; 12.522695; 7020639.1111063
3680.93; 12.36483; 7020651.6979698
3681.95; 12.300898; 7020664.2197534
3682.97; 12.35429; 7020676.7958875
3683.99; 12.525652; 7020689.5464605
3685.00; 12.791282; 7020702.5674339
3686.02; 13.107259; 7020715.910058
3687.04; 13.418586; 7020729.5695991
3688.06; 13.671324; 7020743.4864172
3689.08; 13.824808; 7020757.5594756
3690.09; 13.860894; 7020771.6692673
3691.11; 13.787907; 7020785.7047619
3692.13; 13.638307; 7020799.5879695
3693.15; 13.460717; 7020813.290399
3694.17; 13.308465; 7020826.8378418
3695.18; 13.227547; 7020840.3029142
3696.20; 13.246956; 7020853.7877438
3697.22; 13.373401; 7020867.4012891
3698.24; 13.591169; 7020881.2365128
3699.26; 13.866479; 7020895.3519902
3700.27; 14.154743; 7020909.760908
3701.29; 14.408816; 7020924.4284608
3702.31; 14.58659; 7020939.2769798
3703.33; 14.656913; 7020954.1970849
3704.34; 14.603425; 7020969.0627415
3705.36; 14.426285; 7020983.7480767
3706.38; 14.141842; 7020998.1438618
3707.40; 13.780225; 7021012.1715364
3708.42; 13.38083; 7021025.7926435
3709.43; 12.985994; 7021039.0118254
3710.45; 12.633712; 7021051.872399
3711.47; 12.35082; 7021064.4450008
3712.49; 12.148433; 7021076.8115816
3713.51; 12.021078; 7021089.0485206
3714.52; 11.950052; 7021101.2131579
3715.54; 11.910199; 7021113.3372265
3716.56; 11.878063; 7021125.4285822
3717.58; 11.838765; 7021137.4799341
3718.60; 11.789298; 7021149.4809308
3719.61; 11.737177; 7021161.4288707
3720.63; 11.695073; 7021173.3339499
3721.65; 11.673574; 7021185.2171445
3722.67; 11.674924; 7021197.1017136
3723.69; 11.690175; 7021209.001807
3724.70; 11.700873; 7021220.9127904
3725.72; 11.684642; 7021232.8072516
3726.74; 11.622562; 7021244.6385178
3727.76; 11.505639; 7021256.3507616
3728.78; 11.338118; 7021267.8924769
3729.79; 11.136636; 7021279.2290922
3730.81; 10.925743; 7021290.351027
3731.83; 10.73151; 7021301.2752412
3732.85; 10.575352; 7021312.0404931
3733.87; 10.469768; 7021322.6982654
3734.88; 10.416792; 7021333.3021104
3735.90; 10.408893; 7021343.8979143
3736.92; 10.43145; 7021354.5166804
3737.94; 10.465806; 7021365.1704194
3738.96; 10.492265; 7021375.851092
3739.97; 10.492891; 7021386.5324021
3740.99; 10.454258; 7021397.1743855
3742.01; 10.37019; 7021407.730791
3743.03; 10.24414; 7021418.1588831
3744.05; 10.090386; 7021428.430461
3745.06; 9.9330771; 7021438.5419049
3746.08; 9.802517; 7021448.5204442
3747.10; 9.7289458; 7021458.4240912
3748.12; 9.7350796; 7021468.3339821
3749.14; 9.8294775; 7021478.339966
3750.15; 10.002925; 7021488.5225117
3751.17; 10.229357; 7021498.9355552
3752.19; 10.471527; 7021509.5951179
3753.21; 10.690087; 7021520.4771655
3754.22; 10.853533; 7021531.525594
3755.24; 10.946057; 7021542.6682074
3756.26; 10.970883; 7021553.8360927
3757.28; 10.948027; 7021564.9807121
3758.30; 10.907142; 7021576.083712
3759.31; 10.877638; 7021587.1566785
3760.33; 10.879114; 7021598.2311468
3761.35; 10.914982; 7021609.3421272
3762.37; 10.971197; 7021620.5103322
3763.39; 11.020403; 7021631.7286274
3764.40; 11.030227; 7021642.956923
3765.42; 10.973263; 7021654.127231
3766.44; 10.835899; 7021665.1577082
3767.46; 10.623561; 7021675.9720349
3768.48; 10.361024; 7021686.5191098
3769.49; 10.087821; 7021696.7880761
3770.51; 9.850056; 7021706.815008
3771.53; 9.6907178; 7021716.6797405
3772.55; 9.6408153; 7021726.4936745
3773.57; 9.713254; 7021736.381348
3774.58; 9.900573; 7021746.4597041
3775.60; 10.176717; 7021756.8191629
3776.62; 10.502179; 7021767.5099285
3777.64; 10.831293; 7021778.5357174
3778.66; 11.120235; 7021789.8556365
3779.67; 11.334385; 7021801.3935513
3780.69; 11.453958; 7021813.0531867
3781.71; 11.477169; 7021824.7364492
3782.73; 11.420544; 7021836.3620698
3783.75; 11.316339; 7021847.8816148
3784.76; 11.207331; 7021859.290194
3785.78; 11.139603; 7021870.6298288
3786.80; 11.154317; 7021881.9844417
3787.82; 11.279752; 7021893.4667421
3788.84; 11.52507; 7021905.1987665
3789.85; 11.877186; 7021917.2892289
3790.87; 12.301687; 7021929.8118154
3791.89; 12.748075; 7021942.7888053
3792.91; 13.158628; 7021956.1837207
3793.93; 13.479331; 7021969.905098
3794.94; 13.670643; 7021983.8212222
3795.96; 13.715712; 7021997.7832252
3796.98; 13.624078; 7022011.6519492
3798.00; 13.429834; 7022025.322941
3799.01; 13.18454; 7022038.7442337
3800.03; 12.946455; 7022051.9231658
3801.05; 12.768595; 7022064.921044
3802.07; 12.688414; 7022077.8373016
3803.09; 12.721456; 7022090.7871949
3804.10; 12.860248; 7022103.8783729
3805.12; 13.078298; 7022117.1915162
3806.14; 13.33775; 7022130.7687702
3807.16; 13.598422; 7022144.6113772
3808.18; 13.825826; 7022158.6854711
3809.19; 13.996351; 7022172.9331528
3810.21; 14.098895; 7022187.2852192
3811.23; 14.133352; 7022201.6723617
3812.25; 14.107313; 7022216.0329977
3813.27; 14.032582; 7022230.3175611
3814.28; 13.922855; 7022244.4904267
3815.30; 13.793095; 7022258.531202
3816.32; 13.660259; 7022272.436756
3817.34; 13.544328; 7022286.2242978
3818.36; 13.468397; 7022299.9345443
3819.37; 13.456912; 7022313.6331004
3820.39; 13.531927; 7022327.4080178
3821.41; 13.70806; 7022341.362231
3822.43; 13.987582; 7022355.6009862
3823.45; 14.357216; 7022370.2160124
3824.46; 14.787938; 7022385.2694955
3825.48; 15.238319; 7022400.7814465
3826.50; 15.660934; 7022416.7236019
3827.52; 16.010546; 7022433.021647
3828.54; 16.252191; 7022449.5656758
3829.55; 16.367317; 7022466.2268979
3830.57; 16.35658; 7022482.8771907
3831.59; 16.238739; 7022499.4075263
3832.61; 16.04606; 7022515.7417234
3833.63; 15.817474; 7022531.8432291
3834.64; 15.591192; 7022547.7143897
3835.66; 15.39854; 7022563.3894387
3836.68; 15.26029; 7022578.9237554
3837.70; 15.186039; 7022594.3824881
3838.72; 15.176286; 7022609.8312923
3839.73; 15.226123; 7022625.3308283
3840.75; 15.329082; 7022640.9351724
3841.77; 15.479735; 7022656.6928744
3842.79; 15.674184; 7022672.648517
3843.81; 15.90839; 7022688.8425718
3844.82; 16.175132; 7022705.3081581
3845.84; 16.46098; 7022722.0647259
3846.86; 16.744832; 7022739.1102425
3847.88; 16.999123; 7022756.4146157
3848.89; 17.194; 7022773.9173659
3849.91; 17.303698; 7022791.5317833
3850.93; 17.313429; 7022809.1561071
3851.95; 17.224709; 7022826.6901174
3852.97; 17.057199; 7022844.05361
3853.98; 16.846071; 7022861.2021838
3855.00; 16.635143; 7022878.1360415
3856.02; 16.46738; 7022894.8991239
3857.04; 16.375286; 7022911.5684583
3858.06; 16.37387; 7022928.2363513
3859.07; 16.458256; 7022944.9901459
3860.09; 16.60663; 7022961.8949782
3861.11; 16.787605; 7022978.9840352
3862.13; 16.969718; 7022996.2584761
3863.15; 17.130074; 7023013.6961522
3864.16; 17.259456; 7023031.2655336
3865.18; 17.362407; 7023048.9397147
3866.20; 17.45245; 7023066.7055552
3867.22; 17.544249; 7023084.5648433
3868.24; 17.645532; 7023102.5272336
3869.25; 17.751626; 7023120.5976226
3870.27; 17.844543; 7023138.7625978
3871.29; 17.897015; 7023156.9809867
3872.31; 17.880185; 7023175.182243
3873.33; 17.772547; 7023193.2739284
3874.34; 17.567364; 7023211.1567469
3875.36; 17.276399; 7023228.7433761
3876.38; 16.929008; 7023245.9763753
3877.40; 16.567034; 7023262.8409011
3878.42; 16.237056; 7023279.3695236
3879.43; 15.981987; 7023295.638497
3880.45; 15.833901; 7023311.7567249
3881.47; 15.809303; 7023327.8499128
3882.49; 15.907305; 7023344.0428624
3883.51; 16.11052; 7023360.4426764
3884.52; 16.388124; 7023377.125079
3885.54; 16.700424; 7023394.1253898
3886.56; 17.004287; 7023411.4350197
3887.58; 17.258775; 7023429.0037079
3888.60; 17.43032; 7023446.7470213
3889.61; 17.496725; 7023464.5579328
3890.63; 17.449445; 7023482.3207148
3891.65; 17.293873; 7023499.9251308
3892.67; 17.047874; 7023517.279131
3893.68; 16.739202; 7023534.3189162
3894.70; 16.402598; 7023551.0160529
3895.72; 16.077174; 7023567.3819223
3896.74; 15.804113; 7023583.4698271
3897.76; 15.624145; 7023599.3745326
3898.77; 15.574005; 7023615.2281972
3899.79; 15.681378; 7023631.1911629
3900.81; 15.95878; 7023647.4365127
3901.83; 16.397941; 7023664.1289092
3902.85; 16.967072; 7023681.4006558
3903.86; 17.61333; 7023699.3302661
3904.88; 18.271538; 7023717.9299033
3905.90; 18.87807; 7023737.1469638
3906.92; 19.386559; 7023756.8816441
3907.94; 19.780535; 7023777.0173748
3908.95; 20.078253; 7023797.4561699
3909.97; 20.326936; 7023818.1481141
3910.99; 20.587007; 7023839.1047991
3912.01; 20.910506; 7023860.3907916
3913.03; 21.3204; 7023882.0940387
3914.04; 21.797837; 7023904.2832961
3915.06; 22.282254; 7023926.9656691
3916.08; 22.685243; 7023950.0582681
3917.10; 22.914532; 7023973.3842728
3918.12; 22.900962; 7023996.6964643
3919.13; 22.620232; 7024019.722884
3920.15; 22.102751; 7024042.2225305
3921.17; 21.428774; 7024064.0360979
3922.19; 20.71057; 7024085.1185642
3923.21; 20.067255; 7024105.5461635
3924.22; 19.59975; 7024125.4978627
3925.24; 19.372628; 7024145.2183622
3926.26; 19.406884; 7024164.9737322
3927.28; 19.683905; 7024185.0110979
3928.30; 20.157604; 7024205.5306687
3929.31; 20.769722; 7024226.6733496
3930.33; 21.463306; 7024248.5220692
3931.35; 22.190937; 7024271.1114856
3932.37; 22.916731; 7024294.4397285
3933.39; 23.613459; 7024318.4772104
3934.40; 24.257612; 7024343.1704127
3935.42; 24.82548; 7024368.4416801
3936.44; 25.292472; 7024394.1883247
3937.46; 25.636396; 7024420.2850698
3938.48; 25.843806; 7024446.5929488
3939.49; 25.917296; 7024472.9756372
3940.51; 25.881143; 7024499.3215239
3941.53; 25.782931; 7024525.5674356
3942.55; 25.689729; 7024551.7184714
3943.56; 25.678741; 7024577.8583216
3944.58; 25.823805; 7024604.1458407
3945.60; 26.180338; 7024630.7962949
3946.62; 26.772014; 7024658.0490501
3947.64; 27.582419; 7024686.1267626
3948.65; 28.554037; 7024715.1935405
3949.67; 29.595434; 7024745.3204152
3950.69; 30.59565; 7024776.465467
3951.71; 31.443178; 7024808.4732653
3952.73; 32.045792; 7024841.0944991
3953.74; 32.347324; 7024874.022679
3954.76; 32.338115; 7024906.9414844
3955.78; 32.05724; 7024939.5743714
3956.80; 31.586176; 7024971.7277358
3957.82; 31.035099; 7025003.3201271
3958.83; 30.524135; 7025034.3923798
3959.85; 30.16259; 7025065.0965952
3960.87; 30.029443; 7025095.6652721
3961.89; 30.158349; 7025126.3651699
3962.91; 30.529946; 7025157.4433373
3963.92; 31.073387; 7025189.0747047
3964.94; 31.677646; 7025221.3211815
3965.96; 32.211272; 7025254.110867
3966.98; 32.547292; 7025287.2426057
3968.00; 32.58831; 7025320.4160993
3969.01; 32.286261; 7025353.2821199
3970.03; 31.652041; 7025385.5025322
3971.05; 30.752534; 7025416.8072849
3972.07; 29.695718; 7025447.0362443
3973.09; 28.607764; 7025476.157714
3974.10; 27.608174; 7025504.2616442
3975.12; 26.789331; 7025531.5320272
3976.14; 26.205177; 7025558.2077663
3977.16; 25.870619; 7025584.5429403
3978.18; 25.769814; 7025610.7754989
3979.19; 25.868908; 7025637.1089314
3980.21; 26.128042; 7025663.7061509
3981.23; 26.508589; 7025690.6907508
3982.25; 26.974247; 7025718.1493707
3983.27; 27.487524; 7025746.1304842
3984.28; 28.005254; 7025774.6386238
3985.30; 28.4772; 7025803.6271845
3986.32; 28.850428; 7025832.995675
3987.34; 29.079538; 7025862.5973904
3988.35; 29.140135; 7025892.2607903
3989.37; 29.041045; 7025921.823321
3990.39; 28.830614; 7025951.1716424
3991.41; 28.593846; 7025980.278944
3992.43; 28.43978; 7026009.229413
3993.44; 28.481387; 7026038.222236
3994.46; 28.812454; 7026067.5520706
3995.48; 29.486846; 7026097.5684076
3996.50; 30.504963; 7026128.621144
3997.52; 31.810432; 7026161.0027913
3998.53; 33.297701; 7026194.8984137
3999.55; 34.828833; 7026230.3526624
4000.57; 36.256004; 7026267.2597103
4001.59; 37.445305; 7026305.3774153
4002.61; 38.297481; 7026344.3625987
4003.62; 38.762129; 7026383.8207736
4004.64; 38.843279; 7026423.3615557
4005.66; 38.595944; 7026462.6505611
4006.68; 38.114764; 7026501.4497464
4007.70; 37.517058; 7026539.640493
4008.71; 36.923221; 7026577.2267388
4009.73; 36.437528; 7026614.3185696
4010.75; 36.132077; 7026651.0994644
4011.77; 36.036043; 7026687.7826014
4012.79; 36.131783; 7026724.5631969
4013.80; 36.358662; 7026761.5747457
4014.82; 36.624716; 7026798.857126
4015.84; 36.825185; 7026836.3435753
4016.86; 36.865602; 7026873.8711676
4017.88; 36.685547; 7026911.2154716
4018.89; 36.277918; 7026948.1448263
4019.91; 35.698246; 7026984.4841006
4020.93; 35.059809; 7027020.1734732
4021.95; 34.513206; 7027055.3064277
4022.97; 34.213284; 7027090.1340742
4023.98; 34.28055; 7027125.0301944
4025.00; 34.767121; 7027160.4216231
4026.02; 35.637381; 7027196.6989386
4027.04; 36.770331; 7027234.1295486
4028.06; 37.984731; 7027272.7963652
4029.07; 39.081176; 7027312.5793161
4030.09; 39.889649; 7027353.1852571
4031.11; 40.308839; 7027394.2179156
4032.13; 40.325767; 7027435.2678059
4033.15; 40.010352; 7027475.996618
4034.16; 39.487631; 7027516.1933222
4035.18; 38.897444; 7027555.7892414
4036.20; 38.355108; 7027594.8330864
4037.22; 37.925454; 7027633.4395623
4038.23; 37.61719; 7027671.7322381
4039.25; 37.396895; 7027709.8006636
4040.27; 37.215004; 7027747.6839321
4041.29; 37.032443; 7027785.3813607
4042.31; 36.837466; 7027822.8803119
4043.32; 36.647067; 7027860.1854443
4044.34; 36.494002; 7027897.334764
4045.36; 36.406331; 7027934.3948379
4046.38; 36.388966; 7027971.4372346
4047.40; 36.415405; 7028008.5065456
4048.41; 36.433165; 7028045.5939355
4049.43; 36.380639; 7028082.6278562
4050.45; 36.208565; 7028119.4866125
4051.47; 35.897713; 7028156.0289351
4052.49; 35.466267; 7028192.1320644
4053.50; 34.964619; 7028227.7245379
4054.52; 34.460073; 7028262.8034051
4055.54; 34.017292; 7028297.4315401
4056.56; 33.681122; 7028331.717469
4057.58; 33.466674; 7028365.7850991
4058.59; 33.358332; 7028399.7424416
4059.61; 33.316209; 7028433.656905
4060.63; 33.286691; 7028467.5413202
4061.65; 33.213602; 7028501.351334
4062.67; 33.04776; 7028534.9925275
4063.68; 32.754272; 7028568.3349633
4064.70; 32.317935; 7028601.2332261
4065.72; 31.747036; 7028633.5503385
4066.74; 31.075047; 7028665.1833951
4067.76; 30.358791; 7028696.0873346
4068.77; 29.671618; 7028726.2917615
4069.79; 29.091192; 7028755.9053398
4070.81; 28.683517; 7028785.1039222
4071.83; 28.486832; 7028814.1022881
4072.85; 28.500084; 7028843.1141434
4073.86; 28.680033; 7028872.3091793
4074.88; 28.94881; 7028901.7778187
4075.90; 29.210526; 7028931.5128733
4076.92; 29.372655; 7028961.4129689
4077.94; 29.366371; 7028991.3066671
4078.95; 29.160392; 7029020.9906881
4079.97; 28.765062; 7029050.27228
4080.99; 28.226363; 7029079.0054994
4082.01; 27.612416; 7029107.1137478
4083.02; 26.996699; 7029134.5952226
4084.04; 26.442415; 7029161.5124597
4085.06; 25.991397; 7029187.97058
4086.08; 25.659184; 7029214.090522
4087.10; 25.43621; 7029239.9834858
4088.11; 25.293855; 7029265.7315387
4089.13; 25.193528; 7029291.3774629
4090.15; 25.096805; 7029316.9249276
4091.17; 24.974745; 7029342.3481404
4092.19; 24.814643; 7029367.6083762
4093.20; 24.622792; 7029392.6733154
4094.22; 24.422415; 7029417.5342801
4095.24; 24.246957; 7029442.2166361
4096.26; 24.130174; 7029466.7801121
4097.28; 24.095648; 7029491.3084421
4098.29; 24.148844; 7029515.8909228
4099.31; 24.27436; 7029540.6011737
4100.33; 24.439521; 7029565.4795518
4101.35; 24.603379; 7029590.5247303
4102.37; 24.728299; 7029615.6970715
4103.38; 24.790345; 7029640.9325731
4104.40; 24.785096; 7029666.1627315
4105.42; 24.727176; 7029691.3339299
4106.44; 24.64409; 7029716.4205506
4107.46; 24.566929; 7029741.4286242
4108.47; 24.521413; 7029766.390364
4109.49; 24.522246; 7029791.3529522
4110.51; 24.572101; 7029816.366291
4111.53; 24.664547; 7029841.4737351
4112.55; 24.788743; 7029866.7076056
4113.56; 24.9334; 7029892.0887304
4114.58; 25.088371; 7029917.6276098
4115.60; 25.243899; 7029943.3248094
4116.62; 25.389013; 7029969.1697291
4117.64; 25.511231; 7029995.1390612
4118.65; 25.599023; 7030021.1977616
4119.67; 25.646907; 7030047.3052067
4120.69; 25.661169; 7030073.4271692
4121.71; 25.66308; 7030099.5510772
4122.73; 25.686836; 7030125.6991677
4123.74; 25.7712; 7030151.933137
4124.76; 25.946563; 7030178.3456186
4125.78; 26.221579; 7030205.038055
4126.80; 26.57464; 7030232.0898921
4127.82; 26.954527; 7030259.5284376
4128.83; 27.291725; 7030287.3102359
4129.85; 27.518038; 7030315.3224114
4130.87; 27.588736; 7030343.4065545
4131.89; 27.499858; 7030371.4002237
4132.90; 27.29429; 7030399.1846334
4133.92; 27.053629; 7030426.7240606
4134.94; 26.877554; 7030454.0842503
4135.96; 26.856738; 7030481.4232505
4136.98; 27.047723; 7030508.9566654
4137.99; 27.457618; 7030536.9073357
4139.01; 28.043249; 7030565.4541534
4140.03; 28.724558; 7030594.694514
4141.05; 29.407415; 7030624.6299934
4142.07; 30.008285; 7030655.1771322
4143.08; 30.473231; 7030686.1975668
4144.10; 30.786448; 7030717.5368421
4145.12; 30.967621; 7030749.0605436
4146.14; 31.061313; 7030780.6796198
4147.16; 31.123618; 7030812.3621202
4148.17; 31.210981; 7030844.1335519
4149.19; 31.373657; 7030876.0705811
4150.21; 31.65317; 7030908.2921423
4151.23; 32.080838; 7030940.9490515
4152.25; 32.674209; 7030974.2099866
4153.26; 33.430108; 7031008.2403941
4154.28; 34.316103; 7031043.1727057
4155.30; 35.264813; 7031079.0707631
4156.32; 36.176167; 7031115.8965404
4157.34; 36.930693; 7031153.4903918
4158.35; 37.412787; 7031191.574995
4159.37; 37.538363; 7031229.7874287
4160.39; 37.278251; 7031267.7350796
4161.41; 36.669006; 7031305.0625454
4162.43; 35.806421; 7031341.5119369
4163.44; 34.823023; 7031376.9602719
4164.46; 33.856699; 7031411.4249305
4165.48; 33.020989; 7031445.0388723
4166.50; 32.386922; 7031478.0073612
4167.52; 31.981667; 7031510.5633183
4168.53; 31.802527; 7031542.9369182
4169.55; 31.83864; 7031575.3472803
4170.57; 32.089823; 7031608.0133356
4171.59; 32.573509; 7031641.1717617
4172.61; 33.316245; 7031675.0862619
4173.62; 34.333335; 7031710.0361159
4174.64; 35.605939; 7031746.2814257
4175.66; 37.066842; 7031784.0138713
4176.68; 38.603089; 7031823.3101504
4177.69; 40.077035; 7031864.1068425
4178.71; 41.35964; 7031906.2091713
4179.73; 42.364367; 7031949.3342692
4180.75; 43.06904; 7031993.1766934
4181.77; 43.517118; 7032037.4752419
4182.78; 43.797471; 7032082.0591776
4183.80; 44.009865; 7032126.8593215
4184.82; 44.228879; 7032171.8824121
4185.84; 44.479593; 7032217.1607187
4186.86; 44.733952; 7032262.6979516
4187.87; 44.928888; 7032308.433621
4188.89; 44.999114; 7032354.2407776
4189.91; 44.912053; 7032399.9593092
4190.93; 44.691603; 7032445.4534329
4191.95; 44.421565; 7032490.6726695
4192.96; 44.226836; 7032535.6936801
4193.98; 44.238317; 7032580.7263775
4195.00; 44.552938; 7032626.0793459
4196.02; 45.201633; 7032672.0926581
4197.04; 46.135156; 7032719.0562563
4198.05; 47.231671; 7032767.1360587
4199.07; 48.323241; 7032816.3270327
4200.09; 49.23301; 7032866.4441125
4201.11; 49.812536; 7032917.1511242
4202.13; 49.969847; 7032968.0182721
4203.14; 49.682504; 7033018.5929171
4204.16; 48.994737; 7033068.4674446
4205.18; 48.002002; 7033117.3314111
4206.20; 46.828761; 7033165.001069
4207.22; 45.605594; 7033211.4255961
4208.23; 44.450276; 7033256.6740591
4209.25; 43.455074; 7033300.9094494
4210.27; 42.680307; 7033344.3561601
4211.29; 42.15284; 7033387.2659327
4212.31; 41.867926; 7033429.8856748
4213.32; 41.793318; 7033472.4294692
4214.34; 41.875344; 7033515.0567619
4215.36; 42.046984; 7033557.8587767
4216.38; 42.237744; 7033600.8549772
4217.40; 42.384278; 7033644.0003435
4218.41; 42.439838; 7033687.2022673
4219.43; 42.38022; 7033730.3435027
4220.45; 42.20441; 7033773.3057707
4221.47; 41.929519; 7033815.9882121
4222.49; 41.581508; 7033858.3163928
4223.50; 41.184746; 7033900.2406872
4224.52; 40.754069; 7033941.7265707
4225.54; 40.29214; 7033982.7422308
4226.56; 39.792958; 7034023.2497452
4227.57; 39.249841; 7034063.2043898
4228.59; 38.664307; 7034102.5629859
4229.61; 38.051694; 7034141.2979688
4230.63; 37.440532; 7034179.4108142
4231.65; 36.865161; 7034216.9379577
4232.66; 36.353988; 7034253.9447487
4233.68; 35.917772; 7034290.5074911
4234.70; 35.542758; 7034326.6884848
4235.72; 35.19183; 7034362.5122494
4236.74; 34.813997; 7034397.9513957
4237.75; 34.359306; 7034432.9276865
4238.77; 33.794227; 7034467.3287516
4239.79; 33.112232; 7034501.0355747
4240.81; 32.336028; 7034533.9522556
4241.83; 31.510853; 7034566.0289447
4242.84; 30.691293; 7034597.2713562
4243.86; 29.92612; 7034627.7348554
4244.88; 29.245999; 7034657.5060203
4245.90; 28.657506; 7034686.6781253
4246.92; 28.14462; 7034715.3281336
4247.93; 27.676359; 7034743.5014731
4248.95; 27.217674; 7034771.2078909
4249.97; 26.740188; 7034798.4282488
4250.99; 26.230062; 7034825.1293198
4252.01; 25.69144; 7034851.2820967
4253.02; 25.145252; 7034876.8788782
4254.04; 24.624101; 7034901.9451508
4255.06; 24.164545; 7034926.5436146
4256.08; 23.798372; 7034950.7693304
4257.10; 23.544629; 7034974.7367465
4258.11; 23.404161; 7034998.5611721
4259.13; 23.358213; 7035022.3388247
4260.15; 23.371925; 7035046.1304356
4261.17; 23.402371; 7035069.9530398
4262.19; 23.40937; 7035093.7827681
4263.20; 23.3661; 7035117.5684495
4264.22; 23.266247; 7035141.252485
4265.24; 23.125188; 7035164.7929287
4266.26; 22.974602; 7035188.1800824
4267.28; 22.852155; 7035211.4425904
4268.29; 22.78973; 7035234.6415522
4269.31; 22.804234; 7035257.8552788
4270.33; 22.894059; 7035281.1604434
4271.35; 23.042096; 7035304.6163023
4272.36; 23.223726; 7035328.2570536
4273.38; 23.416439; 7035352.0939776
4274.40; 23.607321; 7035376.1252121
4275.42; 23.795873; 7035400.3483844
4276.44; 23.991626; 7035424.7708246
4277.45; 24.208172; 7035449.4136996
4278.47; 24.45635; 7035474.3092083
4279.49; 24.739196; 7035499.4926422
4280.51; 25.050043; 7035524.9925053
4281.53; 25.373517; 7035550.8216507
4282.54; 25.688071; 7035576.9709985
4283.56; 25.968542; 7035603.4058538
4284.58; 26.188015; 7035630.0641233
4285.60; 26.319456; 7035656.8561941
4286.62; 26.338358; 7035683.6675064
4287.63; 26.227482; 7035710.3659512
4288.65; 25.983627; 7035736.816162
4289.67; 25.624811; 7035762.9011142
4290.69; 25.195048; 7035788.5485854
4291.71; 24.763839; 7035813.7571044
4292.72; 24.418772; 7035838.6143609
4293.74; 24.251758; 7035863.3016036
4294.76; 24.34168; 7035888.0803837
4295.78; 24.737665; 7035913.2622588
4296.80; 25.447138; 7035939.1663468
4297.81; 26.431597; 7035966.0725722
4298.83; 27.610918; 7035994.1792954
4299.85; 28.875016; 7036023.572816
4300.87; 30.100358; 7036054.2136817
4301.89; 31.168353; 7036085.9417196
4302.90; 31.982885; 7036118.4989163
4303.92; 32.484698; 7036151.566937
4304.94; 32.660667; 7036184.8140868
4305.96; 32.546271; 7036217.9447865
4306.98; 32.220011; 7036250.7433674
4307.99; 31.78961; 7036283.1038191
4309.01; 31.371612; 7036315.0387664
4310.03; 31.068109; 7036346.6647604
4311.05; 30.945985; 7036378.1664383
4312.07; 31.024266; 7036409.7478028
4313.08; 31.273451; 7036441.5828261
4314.10; 31.627312; 7036473.7780648
4315.12; 32.003618; 7036506.3563672
4316.14; 32.32714; 7036539.2640009
4317.15; 32.547487; 7036572.3959387
4318.17; 32.646305; 7036605.6284683
4319.19; 32.632488; 7036638.8469331
4320.21; 32.528775; 7036671.9598221
4321.23; 32.356353; 7036704.8971928
4322.24; 32.124598; 7036737.5986473
4323.26; 31.830437; 7036770.0006586
4324.28; 31.467224; 7036802.0329351
4325.30; 31.038442; 7036833.62873
4326.32; 30.568984; 7036864.7466363
4327.33; 30.10751; 7036895.3947819
4328.35; 29.717103; 7036925.6455103
4329.37; 29.456647; 7036955.6311061
4330.39; 29.359751; 7036985.5180659
4331.41; 29.419711; 7037015.4660626
4332.42; 29.58712; 7037045.5844738
4333.44; 29.782033; 7037075.901298
4334.46; 29.917022; 7037106.3555357
4335.48; 29.923226; 7037136.8160883
4336.50; 29.770396; 7037167.1210663
4337.51; 29.474298; 7037197.1246299
4338.53; 29.089576; 7037226.7365635
4339.55; 28.691403; 7037255.9431735
4340.57; 28.352838; 7037284.8051396
4341.59; 28.125551; 7037313.4357367
4342.60; 28.029401; 7037341.9684572
4343.62; 28.05256; 7037370.5247524
4344.64; 28.159983; 7037399.1903997
4345.66; 28.305742; 7037428.004424
4346.68; 28.444572; 7037456.9597712
4347.69; 28.539657; 7037486.0119109
4348.71; 28.566073; 7037515.0909407
4349.73; 28.511159; 7037544.1140705
4350.75; 28.373674; 7037572.9972465
4351.77; 28.162877; 7037601.6658397
4352.78; 27.897375; 7037630.0641637
4353.80; 27.602656; 7037658.1624762
4354.82; 27.306292; 7037685.9591035
4355.84; 27.030998; 7037713.4754933
4356.86; 26.787276; 7037740.7437838
4357.87; 26.5685; 7037767.7893699
4358.89; 26.351104; 7037794.6136571
4359.91; 26.100944; 7037821.183292
4360.93; 25.784492; 7037847.4307925
4361.95; 25.381339; 7037873.2679007
4362.96; 24.893536; 7037898.6084456
4363.98; 24.34819; 7037923.3938522
4365.00; 23.79214; 7037947.6132242
4366.02; 23.280467; 7037971.3117346
4367.03; 22.862895; 7037994.5851756
4368.05; 22.572769; 7038017.5632807
4369.07; 22.421997; 7038040.3879061
4370.09; 22.402824; 7038063.1930145
4371.11; 22.494525; 7038086.0914702
4372.12; 22.671398; 7038109.169975
4373.14; 22.908467; 7038132.4898063
4374.16; 23.182934; 7038156.0890327
4375.18; 23.471871; 7038179.9823841
4376.20; 23.748735; 7038204.1575715
4377.21; 23.981956; 7038228.5701679
4378.23; 24.137843; 7038253.1414502
4379.25; 24.187779; 7038277.7635654
4380.27; 24.117213; 7038302.3138472
4381.29; 23.932464; 7038326.676063
4382.30; 23.661665; 7038350.7626171
4383.32; 23.348193; 7038374.5300706
4384.34; 23.037976; 7038397.9817357
4385.36; 22.764779; 7038421.1552985
4386.38; 22.538869; 7038444.0988944
4387.39; 22.343587; 7038466.8437014
4388.41; 22.14171; 7038489.3830064
4389.43; 21.889881; 7038511.6659604
4390.45; 21.556304; 7038533.6093475
4391.47; 21.1355; 7038555.1243743
4392.48; 20.654739; 7038576.1500072
4393.50; 20.169557; 7038596.6817461
4394.52; 19.749489; 7038616.785874
4395.54; 19.45847; 7038636.5937571
4396.56; 19.336131; 7038656.2771039
4397.57; 19.385835; 7038676.0110477
4398.59; 19.573035; 7038695.9355524
4399.61; 19.834165; 7038716.1258761
4400.63; 20.093095; 7038736.5797799
4401.65; 20.280076; 7038757.224022
4402.66; 20.34779; 7038777.9371947
4403.68; 20.280466; 7038798.5818335
4404.70; 20.094399; 7038819.0370641
4405.72; 19.830866; 7038839.2240299
4406.74; 19.544357; 7038859.1193421
4407.75; 19.2899; 7038878.7556278
4408.77; 19.112851; 7038898.2116855
4409.79; 19.043213; 7038917.5968549
4410.81; 19.094863; 7038937.034601
4411.82; 19.26858; 7038956.649184
4412.84; 19.556897; 7038976.5572613
4413.86; 19.948626; 7038996.8641022
4414.88; 20.431507; 7039017.6624946
4415.90; 20.99235; 7039039.0318009
4416.91; 21.615135; 7039061.0350755
4417.93; 22.278322; 7039083.7134457
4418.95; 22.953017; 7039107.0786262
4419.97; 23.603437; 7039131.1059067
4420.99; 24.190412; 7039155.7307021
4422.00; 24.67762; 7039180.8514548
4423.02; 25.039204; 7039206.3402836
4424.04; 25.266613; 7039232.060605
4425.06; 25.372403; 7039257.8886163
4426.08; 25.389261; 7039283.7337889
4427.09; 25.363815; 7039309.5530577
4428.11; 25.346356; 7039335.3545547
4429.13; 25.379086; 7039361.1893693
4430.15; 25.486222; 7039387.1332432
4431.17; 25.669079; 7039413.2632582
4432.18; 25.907894; 7039439.6363766
4433.20; 26.170076; 7039466.2763843
4434.22; 26.42244; 7039493.1732877
4435.24; 26.643489; 7039520.2952098
4436.26; 26.83157; 7039547.6085904
4437.27; 27.005967; 7039575.0994996
4438.29; 27.200336; 7039602.7882684
4439.31; 27.450608; 7039630.7318031
4440.33; 27.78161; 7039659.0122827
4441.35; 28.197377; 7039687.7159955
4442.36; 28.679061; 7039716.9100422
4443.38; 29.191732; 7039746.6259654
4444.40; 29.698096; 7039776.8573461
4445.42; 30.174339; 7039807.573521
4446.44; 30.622; 7039838.7453961
4447.45; 31.070711; 7039870.3740388
4448.47; 31.569464; 7039902.5103907
4449.49; 32.168161; 7039935.2561905
4450.51; 32.894941; 7039968.7418208
4451.53; 33.737006; 7040003.0846367
4452.54; 34.6323; 7040038.3388232
4453.56; 35.476428; 7040074.4522957
4454.58; 36.144451; 7040111.2457868
4455.60; 36.522179; 7040148.4237887
4456.62; 36.538026; 7040185.617922
4457.63; 36.185684; 7040222.4533868
4458.65; 35.530254; 7040258.6216526
4459.67; 34.695347; 7040293.940019
4460.69; 33.834523; 7040328.3821032
4461.70; 33.095298; 7040362.0716883
4462.72; 32.586207; 7040395.2430406
4463.74; 32.356263; 7040428.1803205
4464.76; 32.392056; 7040461.1540358
4465.78; 32.632004; 7040494.3720074
4466.79; 32.991983; 7040527.9564224
4467.81; 33.393366; 7040561.9494276
4468.83; 33.784467; 7040596.3405576
4469.85; 34.149371; 7040631.1031433
4470.87; 34.502846; 7040666.2255516
4471.88; 34.87493; 7040701.7267255
4472.90; 35.291921; 7040737.6523777
4473.92; 35.761155; 7040774.0556898
4474.94; 36.264927; 7040810.9718202
4475.96; 36.765199; 7040848.3972067
4476.97; 37.216794; 7040886.2822967
4477.99; 37.583911; 7040924.5410966
4479.01; 37.853986; 7040963.0748205
4480.03; 38.04407; 7041001.8020424
4481.05; 38.197645; 7041040.6855965
4482.06; 38.37281; 7041079.7474609
4483.08; 38.625404; 7041119.0664556
4484.10; 38.991884; 7041158.7585113
4485.12; 39.476708; 7041198.9440962
4486.14; 40.047656; 7041239.7108818
4487.15; 40.64049; 7041281.0811473
4488.17; 41.17207; 7041322.9925383
4489.19; 41.559067; 7041365.2978754
4490.21; 41.738009; 7041407.7853672
4491.23; 41.681886; 7041450.2157283
4492.24; 41.409099; 7041492.3684046
4493.26; 40.982124; 7041534.086438
4494.28; 40.495678; 7041575.3092904
4495.30; 40.056888; 7041616.085474
4496.32; 39.762177; 7041656.561654
4497.33; 39.676677; 7041696.9507986
4498.35; 39.821417; 7041737.4872825
4499.37; 40.171382; 7041778.3800163
4500.39; 40.664472; 7041819.7746936
4501.41; 41.21834; 7041861.7331854
4502.42; 41.750157; 7041904.2330441
4503.44; 42.194019; 7041947.1847348
4504.46; 42.512154; 7041990.4602734
4505.48; 42.69842; 7042033.9254229
4506.49; 42.774956; 7042077.4684827
4507.51; 42.784318; 7042121.0210718
4508.53; 42.779637; 7042164.5688957
4509.55; 42.814567; 7042208.1522779
4510.57; 42.933762; 7042251.8569947
4511.58; 43.164121; 7042295.7962075
4512.60; 43.507466; 7042340.0849304
4513.62; 43.936229; 7042384.8101156
4514.64; 44.394579; 7042430.0018816
4515.66; 44.807073; 7042475.6135483
4516.67; 45.095151; 7042521.5184661
4517.69; 45.198897; 7042567.5289926
4518.71; 45.098568; 7042613.4373886
4519.73; 44.828966; 7042659.0713413
4520.75; 44.480689; 7042704.3507635
4521.76; 44.18584; 7042749.3300415
4522.78; 44.090697; 7042794.2124682
4523.80; 44.322447; 7042839.3308065
4524.82; 44.959351; 7042885.0974856
4525.84; 46.012774; 7042931.9365038
4526.85; 47.425549; 7042980.2136659
4527.87; 49.085773; 7043030.1808648
4528.89; 50.850472; 7043081.9444515
4529.91; 52.571421; 7043135.4598896
4530.93; 54.116427; 7043190.5480772
4531.94; 55.3828; 7043246.925378
4532.96; 56.303701; 7043304.2401157
4533.98; 56.850639; 7043362.1116131
4535.00; 57.035393; 7043420.1711817
4536.02; 56.912203; 7043478.1053482
4537.03; 56.577849; 7043535.6991567
4538.05; 56.165073; 7043592.8727772
4539.07; 55.82546; 7043649.7006863
4540.09; 55.70146; 7043706.402369
4541.11; 55.892491; 7043763.2985132
4542.12; 56.424562; 7043820.7362828
4543.14; 57.234307; 7043878.9983379
4544.16; 58.175454; 7043938.2184399
4545.18; 59.04919; 7043998.327967
4546.20; 59.651859; 7044059.0509858
4547.21; 59.827003; 7044119.9522934
4548.23; 59.506479; 7044180.5273217
4549.25; 58.72837; 7044240.3102681
4550.27; 57.626524; 7044298.9715829
4551.29; 56.395395; 7044356.3796618
4552.30; 55.241114; 7044412.6127323
4553.32; 54.333052; 7044467.9214342
4554.34; 53.768662; 7044522.6556115
4555.36; 53.559083; 7044577.1764466
4556.37; 53.636125; 7044631.775707
4557.39; 53.875377; 7044686.6185162
4558.41; 54.127062; 7044741.7175301
4559.43; 54.246321; 7044796.9379435
4560.45; 54.11709; 7044852.0268058
4561.46; 53.667001; 7044906.657497
4562.48; 52.873346; 7044960.480282
4563.50; 51.761457; 7045013.1712119
4564.52; 50.396883; 7045064.4730644
4565.54; 48.872449; 7045114.2231082
4566.55; 47.291331; 7045162.363642
4567.57; 45.748169; 7045208.9333035
4568.59; 44.311479; 7045254.040477
4569.61; 43.011486; 7045297.8243139
4570.63; 41.837063; 7045340.4126386
4571.64; 40.743434; 7045381.8876958
4572.66; 39.669138; 7045422.2691669
4573.68; 38.557567; 7045461.5191066
4574.70; 37.376491; 7045499.5667612
4575.72; 36.129337; 7045536.3448672
4576.73; 34.854553; 7045571.825298
4577.75; 33.613387; 7045606.0422756
4578.77; 32.470392; 7045639.0957338
4579.79; 31.473377; 7045671.1342739
4580.81; 30.639574; 7045702.3240376
4581.82; 29.952418; 7045732.8143071
4582.84; 29.369549; 7045762.7112406
4583.86; 28.838729; 7045792.0678226
4584.88; 28.31591; 7045820.8921971
4585.90; 27.779213; 7045849.1702375
4586.91; 27.234382; 7045876.8936628
4587.93; 26.710343; 7045904.0836398
4588.95; 26.246896; 7045930.8018472
4589.97; 25.878943; 7045957.1454943
4590.99; 25.622543; 7045983.2281376
4592.00; 25.467105; 7046009.152552
4593.02; 25.375881; 7046034.9841035
4594.04; 25.294228; 7046060.7325364
4595.06; 25.162851; 7046086.3472328
4596.08; 24.931924; 7046111.7268557
4597.09; 24.572079; 7046136.740172
4598.11; 24.079397; 7046161.2519594
4599.13; 23.473497; 7046185.1469664
4600.15; 22.789849; 7046208.3460492
4601.16; 22.069025; 7046230.811364
4602.18; 21.346277; 7046252.540953
4603.20; 20.644481; 7046273.5561435
4604.22; 19.972213; 7046293.8869949
4605.24; 19.327022; 7046313.5610693
4606.25; 18.70225; 7046332.5991526
4607.27; 18.094726; 7046351.0188031
4608.29; 17.51046; 7046368.8436957
4609.31; 16.96627; 7046386.1146264
4610.33; 16.486743; 7046402.8974198
4611.34; 16.097528; 7046419.2840091
4612.36; 15.817212; 7046435.3852485
4613.38; 15.650474; 7046451.3167558
4614.40; 15.584745; 7046467.1813539
4615.42; 15.591423; 7046483.0527493
4616.43; 15.631231; 7046498.9646683
4617.45; 15.662089; 7046514.907999
4618.47; 15.647208; 7046530.8361816
4619.49; 15.561322; 7046546.6769363
4620.51; 15.393694; 7046562.347053
4621.52; 15.147649; 7046577.7667061
4622.54; 14.837362; 7046592.8705005
4623.56; 14.483219; 7046607.6137924
4624.58; 14.10712; 7046621.9742314
4625.60; 13.728745; 7046635.9495018
4626.61; 13.36322; 7046649.5526831
4627.63; 13.020087; 7046662.8065697
4628.65; 12.703234; 7046675.7379135
4629.67; 12.411391; 7046688.3721744
4630.69; 12.139024; 7046700.7291768
4631.70; 11.87763; 7046712.8200916
4632.72; 11.61757; 7046724.646276
4633.74; 11.350401; 7046736.2004945
4634.76; 11.071452; 7046747.4707548
4635.78; 10.782036; 7046758.4464019
4636.79; 10.490578; 7046769.1253578
4637.81; 10.212019; 7046779.5207523
4638.83; 9.9652527; 7046789.6649495
4639.85; 9.7689638; 7046799.6093331
4640.87; 9.6367852; 7046809.4191646
4641.88; 9.5730891; 7046819.1641562
4642.90; 9.5706896; 7046828.9067052
4643.92; 9.6113019; 7046838.6905958
4644.94; 9.6688334; 7046848.533051
4645.96; 9.7147369; 7046858.4222339
4646.97; 9.723992; 7046868.3208382
4647.99; 9.6800561; 7046878.1747176
4649.01; 9.5774178; 7046887.9241156
4650.03; 9.4211403; 7046897.5144298
4651.04; 9.2237327; 7046906.9037917
4652.06; 9.0005311; 7046916.065944
4653.08; 8.7651997; 7046924.9885391
4654.10; 8.5268276; 7046933.6684816
4655.12; 8.2894437; 7046942.1067776
4656.13; 8.0538411; 7046950.3052403
4657.15; 7.8207277; 7046958.2664036
4658.17; 7.5937413; 7046965.9965046
4659.19; 7.3809424; 7046973.5099856
4660.21; 7.1940162; 7046980.8331836
4661.22; 7.0453287; 7046988.0050242
4662.24; 6.9438498; 7046995.0735636
4663.26; 6.8914447; 7047002.088757
4664.28; 6.8809714; 7047009.0932889
4665.30; 6.8970176; 7047016.1141552
4666.31; 6.9192087; 7047023.1576111
4667.33; 6.927141; 7047030.2091417
4668.35; 6.9054623; 7047037.2386043
4669.37; 6.8476063; 7047044.2091721
4670.39; 6.7571677; 7047051.0876772
4671.40; 6.6466787; 7047057.8537093
4672.42; 6.5343269; 7047064.5053721
4673.44; 6.4396699; 7047071.0606782
4674.46; 6.3795133; 7047077.5547474
4675.48; 6.3648505; 7047084.0338906
4676.49; 6.3992792; 7047090.5480806
4677.51; 6.4788219; 7047097.1432418
4678.53; 6.592787; 7047103.8544144
4679.55; 6.7252531; 7047110.7004319
4680.57; 6.8569187; 7047117.6804793
4681.58; 6.9672522; 7047124.7728414
4682.60; 7.0369808; 7047131.9361842
4683.62; 7.0508646; 7047139.1136601
4684.64; 7.0004575; 7047146.2398238
4685.66; 6.8862835; 7047153.2497633
4686.67; 6.7187314; 7047160.0891419
4687.69; 6.5171113; 7047166.72328
4688.71; 6.3067459; 7047173.1432752
4689.73; 6.1145605; 7047179.3676339
4690.75; 5.9641765; 7047185.4389082
4691.76; 5.8717827; 7047191.4161297
4692.78; 5.8439024; 7047197.3649702
4693.80; 5.8776232; 7047203.3481369
4694.82; 5.9630673; 7047209.4182821
4695.83; 6.087144; 7047215.614732
4696.85; 6.2372123; 7047221.963945
4697.87; 6.4033734; 7047228.4823028
4698.89; 6.5786786; 7047235.1791137
4699.91; 6.7573962; 7047242.0578515
4700.92; 6.9322942; 7047249.1146279
4701.94; 7.0923569; 7047256.3343411
4702.96; 7.2222641; 7047263.6862943
4703.98; 7.304324; 7047271.1217809
4705.00; 7.322598; 7047278.5758697
4706.01; 7.2680235; 7047285.9744041
4707.03; 7.1427939; 7047293.24546
4708.05; 6.9623143; 7047300.3327955
4709.07; 6.7537251; 7047307.2077963
4710.09; 6.5510531; 7047313.8764856
4711.10; 6.3881517; 7047320.3793483
4712.12; 6.2913409; 7047326.7836619
4713.14; 6.2737998; 7047333.1701194
4714.16; 6.3332485; 7047339.6170931
4715.18; 6.4534669; 7047346.186444
4716.19; 6.6090674; 7047352.9141894
4717.21; 6.7720348; 7047359.8078287
4718.23; 6.9181498; 7047366.8502066
4719.25; 7.0316053; 7047374.0080774
4720.27; 7.1068076; 7047381.2425008
4721.28; 7.1472625; 7047388.5181056
4722.30; 7.1622834; 7047395.8090011
4723.32; 7.1627804; 7047403.1004025
4724.34; 7.1574744; 7047410.3864026
4725.36; 7.1505716; 7047417.6653759
4726.37; 7.1413729; 7047424.9349854
4727.39; 7.1256751; 7047432.1886151
4728.41; 7.0983288; 7047439.4144075
4729.43; 7.0560529; 7047446.5971649
4730.45; 6.9996064; 7047453.7224621
4731.46; 6.9346437; 7047460.7816301
4732.48; 6.8709544; 7047467.7759653
4733.50; 6.8202291; 7047474.7186642
4734.52; 6.7928903; 7047481.6335334
4735.54; 6.7948202; 7047488.5503671
4736.55; 6.8249129; 7047495.497834
4737.57; 6.8742443; 7047502.495518
4738.59; 6.9272914; 7047509.5472017
4739.61; 6.9651049; 7047516.6373779
4740.63; 6.9697718; 7047523.7323048
4741.64; 6.9290635; 7047530.7857925
4742.66; 6.8400047; 7047537.7486222
4743.68; 6.7102904; 7047544.5794082
4744.70; 6.5570187; 7047551.2541703
4745.71; 6.4029378; 7047557.7720847
4746.73; 6.2711184; 7047564.1558126
4747.75; 6.1794366; 7047570.4462124
4748.77; 6.1363223; 7047576.6927237
4749.79; 6.1388758; 7047582.9418343
4750.80; 6.1737894; 7047589.2264856
4751.82; 6.2207419; 7047595.5589324
4752.84; 6.2572923; 7047601.9285859
4753.86; 6.2639778; 7047608.3050451
4754.88; 6.228369; 7047614.6452559
4755.89; 6.1472163; 7047620.9028568
4756.91; 6.0263769; 7047627.0374484
4757.93; 5.8787668; 7047633.0217794
4758.95; 5.7210015; 7047638.845512
4759.97; 5.5695814; 7047644.5151055
4760.98; 5.4374658; 7047650.050211
4762.00; 5.3316933; 7047655.4776448
4763.02; 5.2524401; 7047660.8244022
4764.04; 5.1936088; 7047666.1112718
4765.06; 5.1447508; 7047671.3484061
4766.07; 5.0938754; 7047676.5337515
4767.09; 5.0305145; 7047681.6545982
4768.11; 4.9483296; 7047686.6917842
4769.13; 4.8466153; 7047691.6254294
4770.15; 4.7302803; 7047696.4406506
4771.16; 4.6082635; 7047701.131664
4772.18; 4.4907753; 7047705.7030794
4773.20; 4.3861265; 7047710.1679668
4774.22; 4.2980895; 7047714.5432365
4775.24; 4.2246379; 7047718.8437356
4776.25; 4.1585334; 7047723.0769432
4777.27; 4.0896692; 7047727.24005
4778.29; 4.0085065; 7047731.3205366
4779.31; 3.9095483; 7047735.3002881
4780.33; 3.7937248; 7047739.1621363
4781.34; 3.6688606; 7047742.896878
4782.36; 3.5479721; 7047746.5085606
4783.38; 3.4458263; 7047750.0162631
4784.40; 3.3747537; 7047753.4516167
4785.42; 3.3409711; 7047756.8525811
4786.43; 3.3425299; 7047760.2551323
4787.45; 3.3695229; 7047763.6851612
4788.47; 3.4064927; 7047767.1528238
4789.49; 3.4363238; 7047770.6508531
4790.50; 3.4444716; 7047774.1571766
4791.52; 3.4223111; 7047777.6409416
4792.54; 3.3687006; 7047781.0701335
4793.56; 3.2894287; 7047784.4186299
4794.58; 3.1948577; 7047787.6708572
4795.59; 3.0965951; 7047790.8230574
4796.61; 3.004243; 7047793.8812471
4797.63; 2.9231589; 7047796.8568967
4798.65; 2.8537623; 7047799.7619035
4799.67; 2.7923897; 7047802.6044357
4800.68; 2.7332274; 7047805.3867433
4801.70; 2.6705783; 7047808.1052768
4802.72; 2.6007236; 7047810.7527011
4803.74; 2.5228822; 7047813.3208864
4804.76; 2.4391473; 7047815.803833
4805.77; 2.353628; 7047818.1997247
4806.79; 2.271241; 7047820.5117501
4807.81; 2.196604; 7047822.7477982
4808.83; 2.1333277; 7047824.9194337
4809.85; 2.0837613; 7047827.0406128
4810.86; 2.049045; 7047829.1264522
4811.88; 2.0292325; 7047831.1921233
4812.90; 2.0233072; 7047833.2517627
4813.92; 2.0290657; 7047835.3172641
4814.94; 2.0430074; 7047837.3969575
4815.95; 2.0604532; 7047839.4944099
4816.97; 2.0760672; 7047841.6077568
4817.99; 2.0847948; 7047843.7299879
4819.01; 2.0830177; 7047845.85041
4820.03; 2.0695683; 7047847.9571413
4821.04; 2.0462137; 7047850.0400985
4822.06; 2.0173494; 7047852.0936731
4823.08; 1.988894; 7047854.1182814
4824.10; 1.9666536; 7047856.1202499
4825.12; 1.9546345; 7047858.1099834
4826.13; 1.9538291; 7047860.0988971
4827.15; 1.9618694; 7047862.0959955
4828.17; 1.9736711; 7047864.1051075
4829.19; 1.9828778; 7047866.1235916
4830.21; 1.9836637; 7047868.1428756
4831.22; 1.9723474; 7047870.1506401
4832.24; 1.9483471; 7047872.1339733
4833.26; 1.9142256; 7047874.0825724
4834.28; 1.8748627; 7047875.9911017
4835.30; 1.8360508; 7047877.8601222
4836.31; 1.8029584; 7047879.695456
4837.33; 1.7789013; 7047881.5063008
4838.35; 1.7647308; 7047883.3027205
4839.37; 1.7589286; 7047885.0932339
4840.38; 1.7582864; 7047886.8830936
4841.40; 1.7588964; 7047888.6735743
4842.42; 1.7571372; 7047890.4622641
4843.44; 1.7503989; 7047892.2440947
4844.46; 1.7374227; 7047894.0127161
4845.47; 1.7182709; 7047895.7618416
4846.49; 1.6940499; 7047897.4863114
4847.51; 1.6665478; 7047899.1827851
4848.53; 1.6379123; 7047900.8501091
4849.55; 1.6104276; 7047902.4894549
4850.56; 1.5863637; 7047904.1043046
4851.58; 1.5678306; 7047905.7002885
4852.60; 1.5565711; 7047907.2848107
4853.62; 1.5536746; 7047908.8663844
4854.64; 1.5592632; 7047910.453647
4855.65; 1.572255; 7047912.0541347
4856.67; 1.5903213; 7047913.6730132
4857.69; 1.6101209; 7047915.3120467
4858.71; 1.6278128; 7047916.96909
4859.73; 1.6397627; 7047918.6382976
4860.74; 1.6432836; 7047920.3110894
4861.76; 1.6372263; 7047921.9777152
4862.78; 1.6222606; 7047923.6291065
4863.80; 1.6007587; 7047925.2586098
4864.82; 1.5762934; 7047926.8632084
4865.83; 1.552855; 7047928.4439478
4866.85; 1.5339622; 7047930.0054551
4867.87; 1.5218681; 7047931.5546512
4868.89; 1.5170463; 7047933.0989389
4869.91; 1.51808; 7047934.6442788
4870.92; 1.5219899; 7047936.1935988
4871.94; 1.5249384; 7047937.7459203
4872.96; 1.5231552; 7047939.2964266
4873.98; 1.5138702; 7047940.8374812
4875.00; 1.4960252; 7047942.3603703
4876.01; 1.4705781; 7047943.8573553
4877.03; 1.4403053; 7047945.323524
4878.05; 1.4091394; 7047946.7579671
4879.07; 1.3812009; 7047948.16397
4880.09; 1.359781; 7047949.5481684
4881.10; 1.3465513; 7047950.9188996
4882.12; 1.3412196; 7047952.2842032
4883.14; 1.3417265; 7047953.6500229
4884.16; 1.3449147; 7047955.019088
4885.17; 1.3474609; 7047956.3907451
4886.19; 1.3467816; 7047957.7617107
4887.21; 1.3416362; 7047959.1274385
4888.23; 1.3322561; 7047960.4836177
4889.25; 1.3199887; 7047961.8273093
4890.26; 1.3066087; 7047963.1573805
4891.28; 1.293559; 7047964.4741677
4892.30; 1.2814011; 7047965.7785788
4893.32; 1.2696721; 7047967.0710502
4894.34; 1.2571932; 7047968.3508187
4895.35; 1.2427049; 7047969.6158386
4896.37; 1.2255789; 7047970.863425
4897.39; 1.2063223; 7047972.0914091
4898.41; 1.1866601; 7047973.2993778
4899.43; 1.169132; 7047974.4895038
4900.44; 1.1563238; 7047975.6665915
4901.46; 1.1499903; 7047976.837232
4902.48; 1.1503849; 7047978.0082741
4903.50; 1.1560497; 7047979.1850828
4904.52; 1.1641656; 7047980.3701531
4905.53; 1.1713709; 7047981.5625581
4906.55; 1.1747853; 7047982.7584388
4907.57; 1.1729019; 7047983.9524024
4908.59; 1.1660438; 7047985.1393847
4909.61; 1.1562283; 7047986.3163752
4910.62; 1.1464826; 7047987.483445
4911.64; 1.1398394; 7047988.6437524
4912.66; 1.1383474; 7047989.8025409
4913.68; 1.1424226; 7047990.9654777
4914.70; 1.1507461; 7047992.1368876
4915.71; 1.1607235; 7047993.318454
4916.73; 1.169337; 7047994.5087886
4917.75; 1.1740959; 7047995.7039675
4918.77; 1.1737721; 7047996.8988169
4919.79; 1.168696; 7047998.088499
4920.80; 1.160542; 7047999.2698806
4921.82; 1.1517014; 7048000.4422629
4922.84; 1.1444681; 7048001.6072821
4923.86; 1.1403007; 7048002.768059
4924.88; 1.1393824; 7048003.9279011
4925.89; 1.140591; 7048005.0889735
4926.91; 1.1418585; 7048006.2513362
4927.93; 1.1407929; 7048007.4126142
4928.95; 1.135372; 7048008.5683739
4929.97; 1.1245228; 7048009.7130896
4930.98; 1.1084495; 7048010.8414434
4932.00; 1.0886461; 7048011.9496381
4933.02; 1.0676133; 7048013.0364224
4934.04; 1.0483586; 7048014.1036062
4935.05; 1.0337954; 7048015.1559653
4936.07; 1.0261682; 7048016.2005603
4937.09; 1.0266167; 7048017.2456118
4938.11; 1.0349578; 7048018.2991542
4939.13; 1.0497207; 7048019.3677246
4940.14; 1.0684179; 7048020.4553278
4941.16; 1.0879868; 7048021.5628515
4942.18; 1.1053043; 7048022.6880036
4943.20; 1.1176656; 7048023.8257389
4944.22; 1.1231373; 7048024.9690443
4945.23; 1.1207367; 7048026.1099059
4946.25; 1.1104368; 7048027.2402827
4947.27; 1.0930446; 7048028.3529549
4948.29; 1.0700152; 7048029.4421842
4949.31; 1.043263; 7048030.5041809
4950.32; 1.0149936; 7048031.5374006
4951.34; 0.98755219; 7048032.5426861
4952.36; 0.96325224; 7048033.5232353
4953.38; 0.94415741; 7048034.4843468
4954.40; 0.93181468; 7048035.432894
4955.41; 0.92698238; 7048036.376522
4956.43; 0.92943236; 7048037.3226441
4957.45; 0.93791443; 7048038.2774005
4958.47; 0.95034184; 7048039.2448075
4959.49; 0.96419444; 7048040.2263158
4960.50; 0.97706247; 7048041.2209232
4961.52; 0.98719573; 7048042.2258459
4962.54; 0.99390384; 7048043.2375971
4963.56; 0.99768453; 7048044.2531969
4964.58; 1.00003; 7048045.2711843
4965.59; 1.002954; 7048046.2921482
4966.61; 1.0083641; 7048047.3186194
4967.63; 1.0174488; 7048048.3543383
4968.65; 1.0302462; 7048049.4030844
4969.67; 1.0455101; 7048050.4673685
4970.68; 1.0609102; 7048051.5473293
4971.70; 1.0735193; 7048052.6401256
4972.72; 1.0804712; 7048053.7399986
4973.74; 1.0796368; 7048054.8390223
4974.76; 1.070164; 7048055.9284031
4975.77; 1.052758; 7048057.0000653
4976.79; 1.0296327; 7048058.048187
4977.81; 1.0041299; 7048059.0703479
4978.83; 0.98007278; 7048060.0680197
4979.84; 0.96097889; 7048061.0462547
4980.86; 0.94929785; 7048062.012599
4981.88; 0.94584677; 7048062.9754302
4982.90; 0.94958668; 7048063.9420684
4983.92; 0.95781461; 7048064.9170824
4984.93; 0.96675133; 7048065.9011935
4985.95; 0.97240431; 7048066.8910591
4986.97; 0.97150812; 7048067.8800125
4987.99; 0.96231342; 7048068.859606
4989.01; 0.94502619; 7048069.8216019
4990.02; 0.92178458; 7048070.7599388
4991.04; 0.89618008; 7048071.6722115
4992.06; 0.87244785; 7048072.5603257
4993.08; 0.85453303; 7048073.4302035
4994.10; 0.84526257; 7048074.2906443
4995.11; 0.84581098; 7048075.1516434
4996.13; 0.85555966; 7048076.0225662
4997.15; 0.87234234; 7048076.9105731
4998.17; 0.89297716; 7048077.8195853
