#Wavenumber (cm^-1); Spectrum (K*cm*km*mol^-1); Integral (K*km*mol^-1)
0.00; 20.369939; 20.735718921643
1.02; 20.902033; 42.013086916627
2.04; 22.427802; 64.843622010583
3.05; 24.756759; 90.044934710167
4.07; 27.63362; 118.17476699442
5.09; 30.807031; 149.53499477746
6.11; 34.087386; 184.23448280923
7.13; 37.375443; 222.28107093894
8.14; 40.656698; 263.66783513066
9.16; 43.97071; 308.42812082811
10.18; 47.373515; 356.65231437348
11.20; 50.911285; 408.47780512851
12.22; 54.615064; 464.07358358277
13.23; 58.514092; 523.63840425327
14.25; 62.655123; 587.41861533746
15.27; 67.112039; 655.73577548278
16.29; 71.975335; 729.00356014365
17.31; 77.321878; 807.71389552709
18.32; 83.176358; 892.38383843261
19.34; 89.481286; 983.47192595627
20.36; 96.089774; 1081.2871689772
21.38; 102.78561; 1185.918483895
22.40; 109.32333; 1297.2049191185
23.41; 115.47284; 1414.75128765
24.43; 121.05261; 1537.9776218611
25.45; 125.94302; 1666.1821811367
26.47; 130.08243; 1798.6004798474
27.48; 133.4577; 1934.4546570549
28.50; 136.10235; 2073.0009812076
29.52; 138.10856; 2213.5895376749
30.54; 139.64672; 2355.7438731159
31.56; 140.97582; 2499.2511708345
32.57; 142.42526; 2644.2339358004
33.59; 144.33814; 2791.1639361364
34.61; 146.98407; 2940.7873750843
35.63; 150.46875; 3093.9580685289
36.65; 154.67832; 3251.4139234546
37.66; 159.29086; 3413.565149864
38.68; 163.86603; 3580.3736963876
39.70; 167.99261; 3751.3829246013
40.72; 171.4462; 3925.9077629293
41.74; 174.29711; 4103.3346973596
42.75; 176.91994; 4283.4315637496
43.77; 179.88902; 4466.5508239187
44.79; 183.78603; 4653.6370722695
45.81; 188.98288; 4846.0134907364
46.83; 195.47744; 5045.0010931749
47.84; 202.84607; 5251.4896350585
48.86; 210.33795; 5465.6045913712
49.88; 217.08647; 5686.5892464573
50.90; 222.36994; 5912.9522479458
51.92; 225.83537; 6142.8429046393
52.93; 227.61033; 6374.5403994042
53.95; 228.26646; 6606.9058076737
54.97; 228.64815; 6839.659752997
55.99; 229.62431; 7073.4073942315
57.01; 231.84368; 7309.4142554156
58.02; 235.56801; 7549.2123238883
59.04; 240.62773; 7794.1609651212
60.06; 246.50187; 8045.0892353418
61.08; 252.48561; 8302.108686301
62.10; 257.88584; 8564.62534493
63.11; 262.18518; 8831.5185409048
64.13; 265.13271; 9101.412201805
65.15; 266.74935; 9372.951530114
66.17; 267.26293; 9645.0136573496
67.19; 267.00656; 9916.8148145057
68.20; 266.31749; 10187.91452875
69.22; 265.46512; 10458.146566575
70.24; 264.6211; 10727.519424684
71.26; 263.86782; 10996.125475672
72.27; 263.23001; 11264.082270555
73.29; 262.70994; 11531.509655305
74.31; 262.30991; 11798.529819967
75.33; 262.03425; 12065.269377157
76.35; 261.87305; 12331.844838956
77.36; 261.77817; 12598.32371804
78.38; 261.6464; 12864.668463047
79.40; 261.32266; 13130.683655786
80.42; 260.62901; 13395.992738525
81.44; 259.41455; 13660.065559679
82.45; 257.61107; 13922.30251706
83.47; 255.27323; 14182.159651775
84.49; 252.58439; 14439.279658566
85.51; 249.81948; 14693.585104864
86.53; 247.27266; 14945.298005159
87.54; 245.17353; 15194.874082674
88.56; 243.6244; 15442.873208689
89.58; 242.58765; 15689.816963297
90.60; 241.93526; 15936.096620743
91.62; 241.54775; 16181.981809269
92.63; 241.42584; 16427.742894366
93.65; 241.76636; 16673.850616978
94.67; 242.96015; 16921.173564386
95.69; 245.49465; 17171.076527055
96.71; 249.77983; 17425.341620402
97.72; 255.94911; 17685.886770531
98.74; 263.70452; 17954.326594354
99.76; 272.26856; 18231.484242784
100.78; 280.47483; 18516.995511719
101.80; 286.98571; 18809.134578724
102.81; 290.5834; 19104.935937256
103.83; 290.45507; 19400.606665614
104.85; 286.39385; 19692.143248641
105.87; 278.86239; 19976.013133013
106.89; 268.9066; 20249.748445856
107.90; 257.94802; 20512.32839748
108.92; 247.51175; 20764.284678113
109.94; 238.95456; 21007.530112219
110.96; 233.24699; 21244.965485946
111.98; 230.84062; 21479.951280254
112.99; 231.62836; 21715.738955867
114.01; 234.98885; 21954.947469099
115.03; 239.89912; 22199.154426038
116.05; 245.0986; 22448.654220993
117.07; 249.28765; 22702.418292542
118.08; 251.33971; 22958.271275946
119.10; 250.49767; 23213.267090155
120.12; 246.51751; 23464.211281944
121.14; 239.72191; 23708.23784315
122.15; 230.93859; 23943.323367294
123.17; 221.32451; 24168.622166871
124.19; 212.10867; 24384.53964067
125.21; 204.31471; 24592.523198317
126.23; 198.5359; 24794.624175181
127.24; 194.82475; 24992.947360088
128.26; 192.72738; 25189.135511532
129.28; 191.4497; 25384.023041412
130.30; 190.10263; 25577.539317487
131.32; 187.95106; 25768.865381495
132.33; 184.59371; 25956.773813178
133.35; 180.02753; 26140.034075068
134.37; 174.58976; 26317.758917439
135.39; 168.8103; 26489.6005162
136.41; 163.23183; 26655.763474415
137.42; 158.25827; 26816.863565685
138.44; 154.07472; 26973.70498222
139.46; 150.65194; 27127.062153368
140.48; 147.81788; 27277.534373697
141.50; 145.35848; 27425.50303231
142.51; 143.1059; 27571.178662647
143.53; 140.98384; 27714.694123939
144.55; 139.00031; 27856.190442041
145.57; 137.19961; 27995.853725211
146.59; 135.59912; 28133.887777013
147.60; 134.13954; 28270.436042284
148.62; 132.66901; 28405.487371816
149.64; 130.96703; 28538.80615343
150.66; 128.79907; 28669.91805096
151.68; 125.98242; 28798.162716855
152.69; 122.44082; 28922.802191808
153.71; 118.23082; 29043.15606809
154.73; 113.5324; 29158.727151098
155.75; 108.60833; 29269.285745528
156.77; 103.74577; 29374.894459367
157.78; 99.197812; 29475.873551232
158.80; 95.141446; 29572.723438115
159.82; 91.661648; 29666.031040671
160.84; 88.762568; 29756.387504139
161.86; 86.397896; 29844.336834469
162.87; 84.506973; 29930.36128591
163.89; 83.042404; 30014.894870152
164.91; 81.97929; 30098.346250159
165.93; 81.303893; 30181.110105138
166.94; 80.988138; 30263.552534664
167.96; 80.962371; 30345.968734579
168.98; 81.1001; 30428.525136789
170.00; 81.224238; 30511.207906102
171.02; 81.136165; 30593.801021058
172.03; 80.659721; 30675.909136133
173.05; 79.685639; 30757.025677676
174.07; 78.20065; 30836.630564495
175.09; 76.290192; 30914.290688044
176.11; 74.112768; 30989.734287768
177.12; 71.85404; 31062.878599651
178.14; 69.67595; 31133.805710509
179.16; 67.677691; 31202.698679121
180.18; 65.880686; 31269.762374236
181.20; 64.240761; 31335.156696685
182.21; 62.68079; 31398.963035943
183.23; 61.130175; 31461.190916448
184.25; 59.555975; 31521.816328984
185.27; 57.974693; 31580.832065107
186.29; 56.441816; 31638.287397953
187.30; 55.024802; 31694.3002722
188.32; 53.771182; 31749.037015258
189.34; 52.684551; 31802.667614703
190.36; 51.717586; 31855.313885141
191.38; 50.784397; 31907.010209914
192.39; 49.787404; 31957.69163833
193.41; 48.649052; 32007.214274303
194.43; 47.337673; 32055.401983032
195.45; 45.879473; 32102.105307054
196.47; 44.353782; 32147.255543084
197.48; 42.87409; 32190.899516453
198.50; 41.561304; 32233.207130797
199.52; 40.516966; 32274.451654283
200.54; 39.802974; 32314.969363981
201.56; 39.431528; 32355.108957533
202.57; 39.365837; 32395.181680804
203.59; 39.529614; 32435.421121751
204.61; 39.822131; 32475.958332931
205.63; 40.135508; 32516.814548043
206.65; 40.371467; 32557.910959161
207.66; 40.455561; 32599.092974451
208.68; 40.347394; 32640.164880892
209.70; 40.045682; 32680.92965751
210.72; 39.587284; 32721.227804611
211.74; 39.039899; 32760.968737039
212.75; 38.489058; 32800.148937309
213.77; 38.02128; 32838.852960126
214.79; 37.706397; 32877.236445184
215.81; 37.582683; 32915.493994637
216.82; 37.648176; 32953.81821336
217.84; 37.86035; 32992.358416223
218.86; 38.144382; 33031.187751222
219.88; 38.408134; 33070.285574623
220.90; 38.560291; 33109.538286634
221.91; 38.527351; 33148.757467839
222.93; 38.265662; 33187.710260024
223.95; 37.766157; 33226.15457789
224.97; 37.051594; 33263.871501411
225.99; 36.168029; 33300.688994253
227.00; 35.173607; 33336.494208653
228.02; 34.127951; 33371.234989904
229.04; 33.084629; 33404.913714171
230.06; 32.087683; 33437.577590719
231.08; 31.171607; 33469.308941499
232.09; 30.363071; 33500.217237523
233.11; 29.682446; 33530.43268657
234.13; 29.143784; 33560.09980058
235.15; 28.753041; 33589.369155155
236.17; 28.505463; 33618.38648639
237.18; 28.383681; 33647.279848868
238.20; 28.357948; 33676.147016596
239.22; 28.38916; 33705.045956627
240.24; 28.434182; 33733.990727203
241.26; 28.452095; 33762.953731956
242.27; 28.40961; 33791.873488797
243.29; 28.284288; 33820.665673764
244.31; 28.065086; 33849.234720109
245.33; 27.750782; 33877.483818735
246.35; 27.347551; 33905.322445315
247.36; 26.867008; 33932.671900553
248.38; 26.325528; 33959.470151554
249.40; 25.744695; 33985.677140382
250.42; 25.151964; 34011.280754187
251.44; 24.580168; 34036.302304498
252.45; 24.064872; 34060.799306238
253.47; 23.639349; 34084.863143648
254.49; 23.328038; 34108.610080002
255.51; 23.140186; 34132.165791045
256.53; 23.065631; 34155.645607896
257.54; 23.074299; 34179.134248575
258.56; 23.120033; 34202.669444105
259.58; 23.148193; 34226.233306088
260.60; 23.105501; 34249.75370872
261.61; 22.950017; 34273.115835889
262.63; 22.659225; 34296.181949394
263.65; 22.234643; 34318.815856924
264.67; 21.702214; 34340.907774511
265.69; 21.108509; 34362.395325896
266.70; 20.513482; 34383.277165405
267.72; 19.980982; 34403.616942914
268.74; 19.568515; 34423.536846697
269.76; 19.317856; 34443.201590247
270.78; 19.248058; 34462.795282466
271.79; 19.352142; 34482.494928216
272.81; 19.59824; 34502.445090649
273.83; 19.935189; 34522.738252926
274.85; 20.301688; 34543.404495125
275.87; 20.637242; 34564.412316757
276.88; 20.892637; 34585.680120172
277.90; 21.037691; 34607.095581938
278.92; 21.064669; 34628.538505819
279.94; 20.986894; 34649.902258421
280.96; 20.833331; 34671.109690223
281.97; 20.640939; 34692.121275648
282.99; 20.447012; 34712.935451975
284.01; 20.28337; 34733.583047374
285.03; 20.173357; 34754.118654511
286.05; 20.131446; 34774.61159788
287.06; 20.164315; 34795.138000831
288.08; 20.271972; 34815.773993871
289.10; 20.447871; 34836.589044624
290.12; 20.677902; 34857.638256267
291.14; 20.939104; 34878.953361062
292.15; 21.199583; 34900.533621552
293.17; 21.420931; 34922.339205275
294.19; 21.563647; 34944.29006761
295.21; 21.594698; 34966.27253798
296.23; 21.495255; 34988.153780262
297.24; 21.266097; 35009.801749704
298.26; 20.928592; 35031.10615277
299.28; 20.520469; 35051.99510442
300.30; 20.087283; 35072.443091262
301.32; 19.671933; 35092.468270301
302.33; 19.305335; 35112.120267824
303.35; 19.000955; 35131.462419813
304.37; 18.754678; 35150.553872998
305.39; 18.549716; 35169.436683082
306.41; 18.36472; 35188.131175263
307.42; 18.182403; 35206.64007726
308.44; 17.996013; 35224.959241597
309.46; 17.811882; 35243.090968505
310.48; 17.647597; 35261.055460809
311.49; 17.526565; 35278.896748015
312.51; 17.470633; 35296.68109804
313.53; 17.492718; 35314.487929779
314.55; 17.59124; 35332.395052802
315.57; 17.747638; 35350.461382235
316.58; 17.927668; 35368.710975061
317.60; 18.086513; 35387.122264716
318.62; 18.177029; 35405.625695961
319.64; 18.15976; 35424.111547684
320.66; 18.012642; 35442.447639564
321.67; 17.737976; 35460.504133756
322.69; 17.364387; 35478.180330622
323.71; 16.942412; 35495.426974673
324.73; 16.533958; 35512.257830062
325.75; 16.197774; 35528.746464651
326.76; 15.974651; 35545.007970109
327.78; 15.87668; 35561.169745471
328.80; 15.884099; 35577.339073175
329.82; 15.951175; 35593.576680938
330.84; 16.019733; 35609.8840782
331.85; 16.036378; 35626.208419332
332.87; 15.968042; 35642.463197021
333.89; 15.81092; 35658.558031335
334.91; 15.589992; 35674.427970189
335.93; 15.349511; 35690.053110164
336.94; 15.137944; 35705.462883788
337.96; 14.992681; 35720.724785884
338.98; 14.929785; 35735.922663125
340.00; 14.94205; 35751.133025081
341.02; 15.00549; 35766.407966184
342.03; 15.09128; 35781.77023838
343.05; 15.178211; 35797.221002431
344.07; 15.260718; 35812.755755157
345.09; 15.349419; 35828.380801397
346.11; 15.464091; 35844.122578757
347.12; 15.622025; 35860.025126204
348.14; 15.826506; 35876.135826734
349.16; 16.060154; 35892.484370914
350.18; 16.286023; 35909.062839259
351.20; 16.456436; 35925.814780792
352.21; 16.526659; 35942.638206933
353.23; 16.468727; 35959.402660018
354.25; 16.280724; 35975.975734105
355.27; 15.988519; 35992.251356285
356.28; 15.639622; 36008.171816155
357.30; 15.291531; 36023.737935013
358.32; 14.998603; 36039.005865155
359.34; 14.801555; 36054.073209086
360.36; 14.722353; 36069.059929144
361.37; 14.764957; 36084.090018063
362.39; 14.920271; 36099.278210525
363.41; 15.172419; 36114.723077929
364.43; 15.503548; 36130.505020526
365.45; 15.895678; 36146.686135256
366.46; 16.329846; 36163.309213657
367.48; 16.784274; 36180.394880574
368.50; 17.233778; 36197.938123168
369.52; 17.651891; 36215.906986611
370.54; 18.015694; 36234.246185746
371.55; 18.311693; 36252.886698667
372.57; 18.540143; 36271.759764662
373.59; 18.715467; 36290.811302864
374.61; 18.861772; 36310.011772522
375.63; 19.004498; 36329.357531805
376.64; 19.160983; 36348.862585574
377.66; 19.333459; 36368.543212053
378.68; 19.507392; 36388.400895437
379.70; 19.656164; 36408.410021733
380.72; 19.7507; 36428.515382561
381.73; 19.770696; 36448.641097527
382.75; 19.713271; 36468.708356721
383.77; 19.595769; 36488.656003985
384.79; 19.451474; 36508.456765376
385.81; 19.319724; 36528.123410372
386.82; 19.234022; 36547.702814832
387.84; 19.21259; 36567.260402621
388.86; 19.254885; 36586.861044271
389.88; 19.345334; 36606.553759762
390.90; 19.462711; 36626.365959725
391.91; 19.591285; 36646.309042897
392.93; 19.729151; 36666.392466881
393.95; 19.890184; 36686.639815739
394.97; 20.098691; 36707.099415567
395.99; 20.378838; 36727.84419328
397.00; 20.74327; 36748.959947386
398.02; 21.185809; 36770.526186822
399.04; 21.68154; 36792.597058437
400.06; 22.19447; 36815.190071286
401.07; 22.689586; 36838.287091102
402.09; 23.144014; 36861.846698814
403.11; 23.552212; 36885.821834584
404.13; 23.922719; 36910.174130446
405.15; 24.26798; 36934.877886834
406.16; 24.592401; 36959.911890298
407.18; 24.88526; 36985.244010705
408.20; 25.123445; 37010.818593825
409.22; 25.284713; 37036.557340102
410.24; 25.366824; 37062.379672815
411.25; 25.404186; 37088.240038112
412.27; 25.473208; 37114.17066493
413.29; 25.681342; 37140.313163339
414.31; 26.141222; 37166.923799476
415.33; 26.937937; 37194.345457363
416.34; 28.101168; 37222.951233362
417.36; 29.592788; 37253.075414831
418.38; 31.314837; 37284.952567265
419.40; 33.134736; 37318.682299084
420.42; 34.918018; 37354.227334615
421.43; 36.556564; 37391.440339371
422.45; 37.983773; 37430.106180973
423.47; 39.175368; 37469.985014885
424.49; 40.142168; 37510.848009437
425.51; 40.924864; 37552.507754873
426.52; 41.598398; 37594.853128935
427.54; 42.28571; 37637.898157421
428.56; 43.171411; 37681.844790445
429.58; 44.500698; 37727.144580535
430.60; 46.551755; 37774.532258276
431.61; 49.581251; 37825.003832754
432.63; 53.758338; 37879.72750078
433.65; 59.115096; 37939.90411737
434.67; 65.543288; 38006.624356102
435.69; 72.854569; 38080.78716323
436.70; 80.896591; 38163.136402326
437.72; 89.68942; 38254.436361166
438.74; 99.527467; 38355.751028056
439.76; 110.99223; 38468.736326699
440.78; 124.84415; 38595.822280504
441.79; 141.80262; 38740.171231215
442.81; 162.26766; 38905.352703116
443.83; 186.06787; 39094.761766264
444.85; 212.32372; 39310.898152249
445.87; 239.48695; 39554.685531376
446.88; 265.56507; 39825.01931416
447.90; 288.48018; 40118.679692328
448.92; 306.4656; 40430.648445784
449.94; 318.38893; 40754.754636133
450.95; 323.91222; 41084.483298862
451.97; 323.45142; 41413.742891628
452.99; 317.96091; 41737.413381947
454.01; 308.62142; 42051.576670338
455.03; 296.53394; 42353.435422608
456.04; 282.51049; 42641.018913208
457.06; 267.01129; 42912.824881889
458.08; 250.22307; 43167.541167033
459.10; 232.22594; 43403.937154862
460.12; 213.17164; 43620.936688836
461.13; 193.40196; 43817.811543332
462.15; 173.46691; 43994.393375436
463.17; 154.04423; 44151.203757857
464.19; 135.79881; 44289.44108946
465.21; 119.23903; 44410.821278988
466.22; 104.62261; 44517.322581703
467.24; 91.941143; 44610.914698218
468.26; 80.981231; 44693.350097323
469.28; 71.433294; 44766.066108594
470.30; 63.006178; 44830.203678552
471.31; 55.50935; 44886.709801879
472.33; 48.881232; 44936.468786874
473.35; 43.163963; 44980.407838592
474.37; 38.443151; 45019.541307691
475.39; 34.779833; 45054.945677215
476.40; 32.159618; 45087.682780144
477.42; 30.473556; 45118.703545589
478.44; 29.531934; 45148.76577991
479.46; 29.101121; 45178.389465548
480.48; 28.948254; 45207.857538771
481.49; 28.879273; 45237.255392587
482.51; 28.761105; 45266.532956122
483.53; 28.525544; 45295.570728751
484.55; 28.15817; 45324.234530652
485.57; 27.678828; 45352.41038307
486.58; 27.120693; 45380.018078107
487.60; 26.513449; 45407.00762546
488.62; 25.8737; 45433.345935473
489.64; 25.203258; 45459.001764831
490.66; 24.493968; 45483.935567117
491.67; 23.736315; 45508.098111683
492.69; 22.928471; 45531.438306215
493.71; 22.082569; 45553.917409017
494.73; 21.226038; 45575.524599851
495.74; 20.3975; 45596.288374755
496.76; 19.63864; 45616.279662751
497.78; 18.984916; 45635.605487807
498.80; 18.458416; 45654.395358388
499.82; 18.06529; 45672.785044182
500.83; 17.798326; 45690.902971775
501.85; 17.643105; 45708.86289086
502.87; 17.584765; 45726.763422495
503.89; 17.612281; 45744.69196419
504.91; 17.718491; 45762.728623058
505.92; 17.896229; 45780.946211764
506.94; 18.132886; 45799.404706911
507.96; 18.406598; 45818.141829845
508.98; 18.686638; 45837.164021432
510.00; 18.938675; 45856.442775125
511.01; 19.133309; 45875.919658393
512.03; 19.254623; 45895.520033251
513.05; 19.30519; 45915.171883645
514.07; 19.30526; 45934.82380502
515.09; 19.28599; 45954.456110959
516.10; 19.278924; 45974.081223494
517.12; 19.305287; 45993.733172205
518.14; 19.368767; 46013.449740993
519.16; 19.454157; 46033.25323354
520.18; 19.532226; 46053.136196383
521.19; 19.569144; 46073.056740049
522.21; 19.537446; 46092.945017001
523.23; 19.425166; 46112.718997373
524.25; 19.240465; 46132.304960612
525.27; 19.010487; 46151.656816415
526.28; 18.774808; 46170.768760892
527.30; 18.575383; 46189.677699721
528.32; 18.445872; 46208.454801378
529.34; 18.403434; 46227.188702981
530.36; 18.445474; 46245.965399377
531.37; 18.552377; 46264.850918933
532.39; 18.695451; 46283.882081649
533.41; 18.847535; 46303.068059023
534.43; 18.992751; 46322.401860206
535.45; 19.132067; 46341.877478829
536.46; 19.282795; 46361.506532112
537.48; 19.47242; 46381.328614904
538.50; 19.729297; 46401.412188182
539.52; 20.073924; 46421.846576692
540.54; 20.514; 46442.728943802
541.55; 21.04463; 46464.151468628
542.57; 21.652491; 46486.192770574
543.59; 22.320964; 46508.91454889
544.61; 23.032928; 46532.361076167
545.62; 23.769574; 46556.557477035
546.64; 24.506224; 46581.503756032
547.66; 25.208574; 46607.164997047
548.68; 25.83342; 46633.462304004
549.70; 26.336285; 46660.271505869
550.71; 26.684907; 46687.435589757
551.73; 26.873893; 46714.792052831
552.75; 26.933917; 46742.209617957
553.77; 26.929883; 46769.623076841
554.79; 26.946412; 46797.053361443
555.80; 27.064345; 46824.603697049
556.82; 27.336296; 46852.430866493
557.84; 27.770565; 46880.700102898
558.86; 28.330175; 46909.538998503
559.88; 28.948252; 46939.007070228
560.89; 29.55477; 46969.09255039
561.91; 30.105328; 46999.738475558
562.93; 30.601882; 47030.889870478
563.95; 31.098238; 47062.546534986
564.97; 31.688416; 47094.803974935
565.98; 32.481278; 47127.868514605
567.00; 33.568558; 47162.039858091
568.02; 34.994583; 47197.662833109
569.04; 36.735186; 47235.057667016
570.06; 38.691373; 47274.443815272
571.07; 40.701034; 47315.875711343
572.09; 42.569289; 47359.209410467
573.11; 44.11438; 47404.115945593
574.13; 45.221043; 47450.149015594
575.15; 45.88803; 47496.861050122
576.16; 46.253222; 47543.944833949
577.18; 46.581562; 47591.362853647
578.20; 47.20978; 47639.420372302
579.22; 48.45644; 47688.746937321
580.24; 50.521801; 47740.175950266
581.25; 53.412347; 47794.547414308
582.27; 56.923277; 47852.492854275
583.29; 60.696247; 47914.279015
584.31; 64.343045; 47979.777458013
585.33; 67.598236; 48048.589545009
586.34; 70.447184; 48120.301738072
587.36; 73.179445; 48194.795255104
588.38; 76.342869; 48272.509001797
589.40; 80.612553; 48354.569102187
590.41; 86.625554; 48442.750177697
591.43; 94.850318; 48539.303708436
592.45; 105.54887; 48646.74789903
593.47; 118.85177; 48767.733871932
594.49; 134.91528; 48905.071805653
595.50; 154.08829; 49061.927036016
596.52; 177.00404; 49242.109515297
597.54; 204.5361; 49450.318441138
598.56; 237.6123; 49692.197510536
599.58; 276.94243; 49974.11294896
600.59; 322.75751; 50302.666165413
601.61; 374.66058; 50684.054472712
602.63; 431.64614; 51123.451615705
603.65; 492.2746; 51624.565918675
604.67; 554.91898; 52189.449492805
605.68; 617.96518; 52818.511383382
606.70; 679.86501; 53510.58462373
607.72; 739.00774; 54262.862616917
608.74; 793.46778; 55070.578580874
609.76; 840.76196; 55926.437976943
610.77; 877.77642; 56819.976495305
611.79; 900.98129; 57737.136568066
612.81; 906.95269; 58660.375268122
613.83; 893.10062; 59569.513162988
614.85; 858.40449; 60443.331897138
615.86; 803.92511; 61261.692966688
616.88; 732.90947; 62007.76318131
617.90; 650.41899; 62669.861650449
618.92; 562.55372; 63242.517059523
619.94; 475.46552; 63726.520440765
620.95; 394.41086; 64128.013678545
621.97; 323.07082; 64456.88583523
622.99; 263.27465; 64724.888072888
624.01; 215.13787; 64943.889139957
625.03; 177.51094; 65124.587613984
626.04; 148.5665; 65275.821904393
627.06; 126.34778; 65404.438497093
628.08; 109.15085; 65515.549352599
629.10; 95.693053; 65612.960751667
630.12; 85.096724; 65699.585544324
631.13; 76.765916; 65777.729934666
632.15; 70.243683; 65849.234973133
633.17; 65.113736; 65915.517946508
634.19; 60.970342; 65977.583123933
635.21; 57.443173; 66036.057795129
636.22; 54.243317; 66091.275151115
637.24; 51.19662; 66143.391100897
638.26; 48.245358; 66192.502793412
639.28; 45.418685; 66238.737055298
640.29; 42.786537; 66282.29190346
641.31; 40.41578; 66323.433423516
642.33; 38.342225; 66362.464153701
643.35; 36.562452; 66399.683152285
644.37; 35.040966; 66435.353343396
645.38; 33.724362; 66469.683288633
646.40; 32.555327; 66502.823206502
647.42; 31.482953; 66534.871494184
648.44; 30.469204; 66565.887828908
649.46; 29.492538; 66595.909960337
650.47; 28.548922; 66624.971530789
651.49; 27.649223; 66653.117246841
652.51; 26.812025; 66680.410731494
653.53; 26.052667; 66706.931222659
654.55; 25.371974; 66732.758797678
655.56; 24.749764; 66757.95298918
656.58; 24.147388; 66782.53398794
657.60; 23.520097; 66806.476431788
658.62; 22.835372; 66829.721855504
659.64; 22.089879; 66852.20839894
660.65; 21.317326; 66873.908516932
661.67; 20.582774; 66894.86089267
662.69; 19.964485; 66915.183876566
663.71; 19.529768; 66935.064337945
664.73; 19.313922; 66954.725076914
665.74; 19.310079; 66974.381904255
666.76; 19.473226; 66994.204808057
667.78; 19.735919; 67014.295122327
668.80; 20.028982; 67034.683761411
669.82; 20.299382; 67055.347656065
670.83; 20.519833; 67076.23596026
671.85; 20.688919; 67097.29638736
672.87; 20.824601; 67118.494932865
673.89; 20.955873; 67139.827107391
674.91; 21.116555; 67161.322849172
675.92; 21.342446; 67183.048538013
676.94; 21.670111; 67205.107775651
677.96; 22.134111; 67227.639346013
678.98; 22.760306; 67250.808355436
680.00; 23.555494; 67274.786832309
681.01; 24.496696; 67299.723411329
682.03; 25.52505; 67325.706810855
683.05; 26.548702; 67352.732244365
684.07; 27.456133; 67380.681402476
685.08; 28.137458; 67409.324120545
686.10; 28.507928; 67438.343960972
687.12; 28.526592; 67467.382801072
688.14; 28.20452; 67496.093785383
689.16; 27.600363; 67524.189764065
690.17; 26.80519; 67551.476290912
691.19; 25.921728; 67577.863491953
692.21; 25.044379; 67603.357589428
693.23; 24.24529; 67628.038248822
694.25; 23.569026; 67652.030500311
695.26; 23.035119; 67675.479256955
696.28; 22.645266; 67698.531160416
697.30; 22.391007; 67721.324239555
698.32; 22.258523; 67743.982455597
699.34; 22.229292; 67766.610915848
700.35; 22.277752; 67789.288706463
701.37; 22.368861; 67812.059241383
702.39; 22.458807; 67834.921337533
703.41; 22.500929; 67857.826312752
704.43; 22.456545; 67880.68610628
705.44; 22.307816; 67903.39450037
706.46; 22.068043; 67925.858816101
707.48; 21.784661; 67948.034660899
708.50; 21.532081; 67969.953390236
709.52; 21.394833; 67991.732407038
710.53; 21.445131; 68013.562625496
711.55; 21.72164; 68035.674317459
712.57; 22.216647; 68058.289905473
713.59; 22.876693; 68081.577391466
714.61; 23.617411; 68105.618896591
715.62; 24.348441; 68130.404558536
716.64; 25.000457; 68155.853944477
717.66; 25.545225; 68181.857881605
718.68; 26.001687; 68208.326477216
719.70; 26.425766; 68235.226766569
720.71; 26.887306; 68262.596883589
721.73; 27.442118; 68290.531775427
722.75; 28.108884; 68319.145406867
723.77; 28.858938; 68348.522560532
724.79; 29.622329; 68378.676812732
725.80; 30.307824; 68409.528869867
726.82; 30.829694; 68440.912168
727.84; 31.132009; 68472.603209444
728.86; 31.202465; 68504.365972687
729.88; 31.071799; 68535.995723253
730.89; 30.800091; 68567.348886738
731.91; 30.455759; 68598.351535391
732.93; 30.09514; 68628.987089502
733.95; 29.749701; 68659.271001272
734.96; 29.424558; 68689.22393182
735.98; 29.107501; 68718.854112124
737.00; 28.783812; 68748.154790593
738.02; 28.45026; 68777.115927234
739.04; 28.12231; 68805.743225366
740.05; 27.831474; 68834.074465141
741.07; 27.613714; 68862.184034789
742.09; 27.49343; 68890.171160398
743.11; 27.469484; 68918.133909958
744.13; 27.509302; 68946.137192811
745.14; 27.554443; 68974.186427108
746.16; 27.537035; 69002.217940194
747.18; 27.402488; 69030.112491016
748.20; 27.131245; 69057.7309274
749.22; 26.751935; 69084.963243203
750.23; 26.340516; 69111.776751919
751.25; 26.004044; 69138.247747069
752.27; 25.852669; 69164.564648537
753.29; 25.967525; 69190.998468896
754.31; 26.374241; 69217.84630825
755.32; 27.030824; 69245.362520269
756.34; 27.834922; 69273.697269267
757.36; 28.649762; 69302.861490663
758.38; 29.342146; 69332.730529163
759.40; 29.821588; 69363.087619106
760.41; 30.06853; 69393.696084856
761.43; 30.142166; 69424.379508817
762.45; 30.164251; 69455.08541499
763.47; 30.282642; 69485.911837765
764.49; 30.624962; 69517.086727518
765.50; 31.256447; 69548.904441955
766.52; 32.155266; 69581.637115449
767.54; 33.213496; 69615.447021156
768.56; 34.263925; 69650.326218741
769.58; 35.124595; 69686.081540382
770.59; 35.647261; 69722.36891423
771.61; 35.754878; 69758.765837636
772.63; 35.457101; 69794.859636219
773.65; 34.840468; 69830.325728965
774.67; 34.03846; 69864.975412484
775.68; 33.192989; 69898.764443246
776.70; 32.420735; 69931.767352555
777.72; 31.79454; 69964.132821801
778.74; 31.343232; 69996.038879608
779.75; 31.065662; 70027.662382597
780.77; 30.949491; 70059.167628475
781.79; 30.984573; 70090.708586584
782.81; 31.164649; 70122.432854275
783.83; 31.477811; 70154.475908021
784.84; 31.892615; 70186.941213766
785.86; 32.349814; 70219.87192884
786.88; 32.767953; 70253.228290491
787.90; 33.064916; 70286.886948528
788.92; 33.189726; 70320.672657095
789.93; 33.152641; 70354.420615475
790.95; 33.040109; 70388.054020219
791.97; 33.005144; 70421.651832765
792.99; 33.232267; 70455.480846431
794.01; 33.885768; 70489.975096338
795.02; 35.057256; 70525.661870001
796.04; 36.730039; 70563.051464247
797.06; 38.773249; 70602.520958286
798.08; 40.969144; 70644.225778697
799.10; 43.066156; 70688.06526691
800.11; 44.8418; 70733.712284729
801.13; 46.15643; 70780.697538944
802.15; 46.981996; 70828.523183625
803.17; 47.398203; 70876.772509213
804.19; 47.558813; 70925.185328309
805.20; 47.639865; 70973.680655213
806.22; 47.786448; 71022.325196695
807.24; 48.073992; 71071.262446554
808.26; 48.494529; 71120.627783958
809.28; 48.969884; 71170.477013124
810.29; 49.385423; 71220.749243074
811.31; 49.632108; 71271.27258707
812.33; 49.643205; 71321.807227959
813.35; 49.41492; 71372.109484431
814.37; 49.006369; 71421.995853785
815.38; 48.52139; 71471.388535363
816.40; 48.080206; 71520.332110536
817.42; 47.791219; 71568.9815096
818.44; 47.731625; 71617.570243876
819.46; 47.941038; 71666.372152253
820.47; 48.426877; 71715.668622884
821.49; 49.176012; 71765.727680799
822.51; 50.165875; 71816.794376878
823.53; 51.36997; 71869.086789197
824.55; 52.756656; 71922.790788003
825.56; 54.284124; 71978.049683742
826.58; 55.896781; 72034.950194395
827.60; 57.527829; 72093.511042392
828.62; 59.110028; 72153.682500314
829.63; 60.592891; 72215.363449108
830.65; 61.961873; 72278.437961586
831.67; 63.254469; 72342.828281631
832.69; 64.569758; 72408.557508573
833.71; 66.070337; 72475.814260237
834.72; 67.977433; 72545.012354041
835.74; 70.559947; 72616.839334819
836.76; 74.116767; 72692.287005174
837.78; 78.950378; 72772.655083195
838.80; 85.330455; 72859.517804357
839.81; 93.449942; 72954.645812507
840.83; 103.38201; 73059.884236419
841.85; 115.05151; 73177.001711136
842.87; 128.23547; 73307.539881343
843.89; 142.60116; 73452.701708964
844.90; 157.77831; 73613.313219911
845.92; 173.44685; 73789.874632474
846.94; 189.41103; 73982.68688392
847.96; 205.62891; 74192.008240547
848.98; 222.17775; 74418.175602274
849.99; 239.15655; 74661.626646039
851.01; 256.55169; 74922.785199943
852.03; 274.10933; 75201.816664583
853.05; 291.26144; 75498.308246026
854.07; 307.13916; 75810.962658152
855.08; 320.67914; 76137.400184296
856.10; 330.79838; 76474.138657084
857.12; 336.58912; 76816.771857458
858.14; 337.47901; 77160.310924295
859.16; 333.31388; 77499.610072043
860.17; 324.3474; 77829.781731873
861.19; 311.15211; 78146.521156097
862.21; 294.48957; 78446.298831843
863.23; 275.18455; 78726.424824824
864.25; 254.03844; 78985.024993912
865.26; 231.79558; 79220.982896045
866.28; 209.15231; 79433.890921845
867.30; 186.78244; 79624.027389426
868.32; 165.34995; 79792.346502274
869.34; 145.4896; 79940.448641288
870.35; 127.75451; 80070.497215577
871.37; 112.54658; 80185.064777862
872.39; 100.05607; 80286.917534588
873.41; 90.234602; 80378.772466116
874.42; 82.815491; 80463.075062059
875.44; 77.37875; 80541.843291008
876.46; 73.444249; 80616.606367683
877.48; 70.568174; 80688.441723863
878.50; 68.418628; 80758.088934353
879.51; 66.81384; 80826.102540694
880.53; 65.717969; 80893.00059707
881.55; 65.200711; 80959.372107065
882.57; 65.374926; 81025.920960356
883.59; 66.329696; 81093.441728199
884.60; 68.075051; 81162.739192767
885.62; 70.510182; 81234.515515854
886.64; 73.420911; 81309.254835301
887.66; 76.50588; 81387.134519782
888.68; 79.425256; 81467.986003299
889.69; 81.86146; 81551.317436648
890.71; 83.579002; 81636.397253913
891.73; 84.470439; 81722.384515327
892.75; 84.577863; 81808.48113037
893.77; 84.084158; 81894.075174888
894.78; 83.274623; 81978.845147601
895.80; 82.476395; 82062.802558721
896.82; 81.988703; 82146.263520684
897.84; 82.019949; 82229.7562891
898.86; 82.646804; 82313.88716932
899.87; 83.805756; 82399.197812202
900.89; 85.319584; 82486.04946744
901.91; 86.952081; 82574.562933329
902.93; 88.476313; 82664.628001862
903.95; 89.737567; 82755.976973229
904.96; 90.693279; 82848.298817861
905.98; 91.41897; 82941.359384192
907.00; 92.079605; 83035.092448721
908.02; 92.876605; 83129.636824958
909.04; 93.988323; 83225.312881601
910.05; 95.523382; 83322.551562736
911.07; 97.501185; 83421.803561894
912.09; 99.863904; 83523.460706777
913.11; 102.51309; 83627.814613045
914.13; 105.35574; 83735.062210579
915.14; 108.3421; 83845.349792859
916.16; 111.48175; 83958.833399809
917.18; 114.83291; 84075.728342379
918.20; 118.47001; 84196.325699925
919.22; 122.4418; 84320.966173206
920.23; 126.73494; 84449.976871034
921.25; 131.25541; 84583.589210883
922.27; 135.83403; 84721.862388401
923.29; 140.25463; 84864.635552674
924.30; 144.29735; 85011.524027696
925.32; 147.78554; 85161.963327178
926.34; 150.62451; 85315.292581218
927.36; 152.82261; 85470.859407013
928.38; 154.49006; 85628.123617488
929.39; 155.81719; 85786.738797667
930.41; 157.03972; 85946.598456906
931.43; 158.40214; 86107.844999972
932.45; 160.13071; 86270.851155303
933.47; 162.42231; 86436.190057751
934.48; 165.44756; 86604.608533839
935.50; 169.3587; 86777.008385906
936.52; 174.28912; 86954.427193543
937.54; 180.33567; 87138.001128028
938.56; 187.52639; 87328.894905001
939.57; 195.79008; 87528.200753658
940.59; 204.95258; 87736.833640553
941.61; 214.78074; 87955.471163548
942.63; 225.07586; 88184.588676554
943.65; 235.79163; 88424.614380441
944.66; 247.1272; 88676.179202465
945.68; 259.54089; 88940.380624108
946.70; 273.65056; 89218.945089053
947.72; 290.03049; 89514.183614021
948.74; 308.96492; 89828.696565745
949.75; 330.25239; 90164.879243952
950.77; 353.15186; 90524.372599504
951.79; 376.51645; 90907.650097485
952.81; 399.08737; 91313.903821811
953.83; 419.84951; 91741.292505121
954.84; 438.31422; 92187.477468646
955.86; 454.61586; 92650.256798379
956.88; 469.38137; 93128.066778541
957.90; 483.42822; 93620.175844059
958.92; 497.42121; 94126.529174629
959.93; 511.6365; 94647.353049035
960.95; 525.93005; 95182.727146917
961.97; 539.91037; 95732.332609206
962.99; 553.21776; 96295.484414252
964.01; 565.76624; 96871.410027886
965.02; 577.83518; 97459.621303135
966.04; 589.99359; 98060.209319691
967.06; 602.95149; 98673.987917455
968.08; 617.49562; 99302.57181538
969.09; 634.63637; 99948.604258983
970.11; 655.96937; 100616.35276942
971.13; 684.09254; 101312.72945706
972.15; 722.802; 102048.51069825
973.17; 776.79477; 102839.25425271
974.18; 850.76124; 103705.29248379
975.20; 948.00974; 104670.32548688
976.22; 1069.026; 105758.54782969
977.24; 1210.5069; 106990.79162877
978.26; 1365.3357; 108380.64446148
979.27; 1523.6842; 109931.6892344
980.29; 1675.0279; 111636.7953584
981.31; 1810.4992; 113479.80537023
982.33; 1924.8349; 115439.20423088
983.35; 2017.2832; 117492.71143775
984.36; 2091.1898; 119621.45244203
985.38; 2152.4594; 121812.56323458
986.40; 2207.4847; 124059.68735695
987.42; 2261.3066; 126361.59985568
988.44; 2316.632; 128719.83124323
989.45; 2373.9587; 131136.41879135
990.47; 2432.5965; 133612.69703417
991.49; 2492.0189; 136149.4647702
992.51; 2552.8823; 138748.1887403
993.53; 2617.2299; 141412.41581249
994.54; 2687.7882; 144148.46824905
995.56; 2766.6725; 146964.82151678
996.58; 2854.092; 149870.16401542
997.60; 2947.6615; 152870.756269
998.62; 3042.6946; 155968.08810526
999.63; 3133.4705; 159157.82588664
1000.65; 3215.0973; 162430.65620951
1001.67; 3285.3679; 165775.01896556
1002.69; 3346.0019; 169181.10450524
1003.71; 3402.862; 172645.07115387
1004.72; 3465.043; 176172.33540912
1005.74; 3543.0417; 179778.99899853
1006.76; 3646.4376; 183490.91513755
1007.78; 3781.6097; 187340.4306372
1008.80; 3949.9883; 191361.34831529
1009.81; 4147.2264; 195583.04581789
1010.83; 4363.5047; 200024.90532828
1011.85; 4584.979; 204692.21611605
1012.87; 4796.1446; 209574.48433694
1013.89; 4982.6665; 214646.62383165
1014.90; 5134.0467; 219872.86182996
1015.92; 5245.4466; 225212.50007159
1016.94; 5318.1159; 230626.11253633
1017.96; 5358.2067; 236080.53572941
1018.97; 5374.2112; 241551.25078112
1019.99; 5373.7178; 247021.46363703
1021.01; 5360.4644; 252478.18510838
1022.03; 5332.6455; 257906.5880682
1023.05; 5283.0789; 263284.53445812
1024.06; 5201.2461; 268579.17850544
1025.08; 5076.5888; 273746.92685433
1026.10; 4902.0164; 278736.96805983
1027.12; 4676.4981; 283497.44137572
1028.14; 4405.9426; 287982.50077303
1029.15; 4102.163; 292158.32566165
1030.17; 3780.3746; 296006.58390394
1031.19; 3456.121; 299524.7659881
1032.21; 3142.6212; 302723.8187716
1033.23; 2849.2546; 305624.23698803
1034.24; 2581.3921; 308251.98279369
1035.26; 2341.2614; 310635.28591523
1036.28; 2129.2121; 312802.73194965
1037.30; 1944.7362; 314782.38953069
1038.32; 1786.8668; 316601.34285927
1039.33; 1653.9736; 318285.01664826
1040.35; 1543.3099; 319856.03955142
1041.37; 1450.7795; 321332.87050085
1042.39; 1371.2562; 322728.75017446
1043.41; 1299.476; 324051.56070584
1044.42; 1231.198; 325304.86716742
1045.44; 1164.1519; 326489.9235187
1046.46; 1098.3436; 327607.98995658
1047.48; 1035.5529; 328662.13811564
1048.50; 978.19855; 329657.90202799
1049.51; 928.02544; 330602.59188055
1050.53; 885.13998; 331503.62618265
1051.55; 847.77592; 332366.62548375
1052.57; 812.86511; 333194.08709176
1053.59; 777.16022; 333985.2026637
1054.60; 738.4448; 334736.90760625
1055.62; 696.35296; 335445.76487433
1056.64; 652.49946; 336109.98117156
1057.66; 609.90496; 336730.8381026
1058.68; 571.96775; 337313.07659269
1059.69; 541.37736; 337864.17538675
1060.71; 519.34324; 338392.84439875
1061.73; 505.35225; 338907.27117999
1062.75; 497.45271; 339413.6565738
1063.76; 492.88392; 339915.39113138
1064.78; 488.7913; 340412.95958377
1065.80; 482.80209; 340904.43128039
1066.82; 473.3458; 341386.27687748
1067.84; 459.72712; 341854.25924367
1068.85; 442.03971; 342304.23659236
1069.87; 421.02307; 342732.81990895
1070.89; 397.92316; 343137.88851525
1071.91; 374.35732; 343518.96811207
1072.93; 352.14452; 343877.43603298
1073.94; 333.06541; 344216.4822518
1074.96; 318.55823; 344540.7607849
1075.98; 309.4102; 344855.72701544
1077.00; 305.53857; 345166.75209034
1078.02; 305.9483; 345478.19425717
1079.03; 308.90554; 345792.64676888
1080.05; 312.29606; 346110.55068385
1081.07; 314.07576; 346430.26625346
1082.09; 312.69072; 346748.57191589
1083.11; 307.35778; 347061.44887571
1084.12; 298.145; 347364.94762337
1085.14; 285.85469; 347655.93535981
1086.16; 271.76563; 347932.58104247
1087.18; 257.31983; 348194.52152862
1088.20; 243.83712; 348442.73719301
1089.21; 232.31569; 348679.22454008
1090.23; 223.34129; 348906.5763377
1091.25; 217.09513; 349127.56981512
1092.27; 213.42997; 349344.8323136
1093.29; 211.97684; 349560.61558565
1094.30; 212.24932; 349776.67623342
1095.32; 213.72334; 349994.23736971
1096.34; 215.88385; 350213.99781519
1097.36; 218.24232; 350436.15907808
1098.38; 220.33809; 350660.45374505
1099.39; 221.74109; 350886.17660378
1100.41; 222.07099; 351112.23529272
1101.43; 221.03948; 351337.24394121
1102.45; 218.50907; 351559.67674225
1103.47; 214.54954; 351778.0789175
1104.48; 209.46578; 351991.30604095
1105.50; 203.77437; 352198.73955705
1106.52; 198.12043; 352400.41760858
1107.54; 193.14693; 352597.03284765
1108.56; 189.34872; 352789.78167617
1109.57; 186.9539; 352980.09267698
1110.59; 185.87039; 353169.30071239
1111.61; 185.71694; 353358.35254084
1112.63; 185.9304; 353547.62166317
1113.64; 185.91641; 353736.87654989
1114.66; 185.19715; 353925.39926077
1115.68; 183.51312; 354112.20769357
1116.70; 180.85427; 354296.30953952
1117.72; 177.42153; 354476.91700023
1118.73; 173.54227; 354653.57554193
1119.75; 169.57528; 354826.1958627
1120.77; 165.83707; 354995.01084551
1121.79; 162.56653; 355160.49655624
1122.81; 159.92568; 355323.29399317
1123.82; 158.01924; 355484.1507656
1124.84; 156.91128; 355643.87968263
1125.86; 156.62362; 355803.31576798
1126.88; 157.11458; 355963.25163389
1127.90; 158.25015; 356124.34346105
1128.91; 159.78669; 356286.99941279
1129.93; 161.38196; 356451.27928538
1130.95; 162.64028; 356616.84007053
1131.97; 163.18317; 356782.95349238
1132.99; 162.72593; 356948.601467
1134.00; 161.13664; 357112.63161344
1135.02; 158.45948; 357273.93652878
1136.04; 154.89617; 357431.61414606
1137.06; 150.75262; 357585.07380459
1138.08; 146.36808; 357734.07019574
1139.09; 142.0474; 357878.66832415
1140.11; 138.0133; 358019.15990619
1141.13; 134.38731; 358155.96038485
1142.15; 131.19851; 358289.51480895
1143.17; 128.41173; 358420.23241248
1144.18; 125.96358; 358548.45789893
1145.20; 123.79536; 358674.47623381
1146.22; 121.87513; 358798.53985342
1147.24; 120.20516; 358920.90351723
1148.26; 118.8151; 359041.85216313
1149.27; 117.74371; 359161.71017902
1150.29; 117.01431; 359280.82570048
1151.31; 116.61063; 359399.53028762
1152.33; 116.46029; 359518.08183238
1153.35; 116.43279; 359636.60538648
1154.36; 116.35594; 359755.05071229
1155.38; 116.05; 359873.18460896
1156.40; 115.37293; 359990.6292711
1157.42; 114.26472; 360106.94582639
1158.43; 112.7768; 360221.74774292
1159.45; 111.07428; 360334.81656745
1160.47; 109.40596; 360446.18711678
1161.49; 108.04643; 360556.1737245
1162.51; 107.22411; 360665.32324636
1163.52; 107.055; 360774.30062015
1164.54; 107.5018; 360883.73281641
1165.56; 108.37173; 360994.05055937
1166.58; 109.35544; 361105.36967947
1167.60; 110.09766; 361217.44435021
1168.61; 110.28101; 361329.70565746
1169.63; 109.70119; 361441.37673346
1170.65; 108.31496; 361551.63668777
1171.67; 106.25038; 361659.7949917
1172.69; 103.77945; 361765.43799299
1173.70; 101.26225; 361868.51859001
1174.72; 99.077247; 361969.37495256
1175.74; 97.553147; 362068.67984675
1176.76; 96.914663; 362167.33479205
1177.78; 97.250003; 362266.33109869
1178.79; 98.503039; 362366.60294147
1179.81; 100.48985; 362468.89727602
1180.83; 102.93703; 362573.68273552
1181.85; 105.53699; 362681.1148405
1182.87; 108.01275; 362791.06715679
1183.88; 110.18102; 362903.22668331
1184.90; 111.99945; 363017.23728861
1185.92; 113.58332; 363132.86020598
1186.94; 115.1817; 363250.11020746
1187.96; 117.11216; 363369.32533659
1188.97; 119.66613; 363491.14029687
1189.99; 123.00882; 363616.35796518
1191.01; 127.10391; 363745.74426042
1192.03; 131.69021; 363879.79921508
1193.05; 136.32421; 364018.5713738
1194.06; 140.48265; 364161.57665436
1195.08; 143.69907; 364307.8561042
1196.10; 145.69426; 364456.16657428
1197.12; 146.46027; 364605.25680438
1198.14; 146.26937; 364754.15271188
1199.15; 145.60278; 364902.370062
1200.17; 145.01871; 365049.99285288
1201.19; 144.99903; 365197.5956081
1202.21; 145.82046; 365346.03454832
1203.22; 147.48832; 365496.17129196
1204.24; 149.75089; 365648.61123368
1205.26; 152.18784; 365803.53189196
1206.28; 154.34397; 365960.64739043
1207.30; 155.8674; 366119.31368009
1208.31; 156.61217; 366278.7381148
1209.33; 156.67695; 366438.22848673
1210.35; 156.37164; 366597.40806465
1211.37; 156.1243; 366756.33586514
1212.39; 156.35718; 366915.50072296
1213.40; 157.36834; 367075.69490008
1214.42; 159.25287; 367237.80745344
1215.44; 161.88536; 367402.59976283
1216.46; 164.96713; 367570.52918022
1217.48; 168.12225; 367741.67037558
1218.49; 171.01082; 367915.75201246
1219.51; 173.42218; 368092.28831308
1220.53; 175.31658; 368270.75303125
1221.55; 176.8008; 368450.72861766
1222.57; 178.04652; 368631.97228784
1223.58; 179.18192; 368814.3717529
1224.60; 180.1991; 368997.80665832
1225.62; 180.91647; 369181.97181708
1226.64; 181.01713; 369366.23944551
1227.66; 180.15565; 369549.63012265
1228.67; 178.0986; 369730.9268093
1229.69; 174.84815; 369908.91468085
1230.71; 170.70061; 370082.68053644
1231.73; 166.21275; 370251.87794427
1232.75; 162.081; 370416.86940852
1233.76; 158.96985; 370578.6938576
1234.78; 157.34447; 370738.86373432
1235.80; 157.36143; 370899.05087467
1236.82; 158.85145; 371060.7547914
1237.84; 161.39654; 371225.04950215
1238.85; 164.4732; 371392.47612578
1239.87; 167.61365; 371563.09959168
1240.89; 170.53461; 371736.69646208
1241.91; 173.19728; 371913.00382438
1242.93; 175.78643; 372091.94682444
1243.94; 178.62172; 372273.77602274
1244.96; 182.03383; 372459.07860222
1245.98; 186.24508; 372648.66805911
1247.00; 191.29021; 372843.39324084
1248.02; 196.9992; 373043.92992172
1249.03; 203.04536; 373250.62133605
1250.05; 209.04278; 373463.4178632
1251.07; 214.66213; 373681.93464649
1252.09; 219.72734; 373905.60759974
1253.10; 224.25944; 374133.89403578
1254.12; 228.44921; 374366.44547682
1255.14; 232.56388; 374603.18546707
1256.16; 236.81805; 374844.25602367
1257.18; 241.25703; 375089.84526617
1258.19; 245.70268; 375339.95998995
1259.21; 249.79547; 375594.24099845
1260.23; 253.13341; 375851.91988855
1261.25; 255.47101; 376111.97834938
1262.27; 256.91228; 376373.50396408
1263.28; 258.02438; 376636.16165125
1264.30; 259.81703; 376900.64417298
1265.32; 263.57353; 377168.95064948
1266.34; 270.56806; 377444.37725625
1267.36; 281.74402; 377731.18050803
1268.37; 297.44608; 378033.96777926
1269.39; 317.28772; 378356.95298548
1270.41; 340.20065; 378703.26257139
1271.43; 364.66379; 379074.47457595
1272.45; 389.06153; 379470.52242308
1273.46; 412.08629; 379890.0084802
1274.48; 433.08581; 380330.87114416
1275.50; 452.26403; 380791.25641344
1276.52; 470.67386; 381270.38209105
1277.54; 489.9862; 381769.16689425
1278.55; 512.07515; 382290.4373033
1279.57; 538.513; 382838.62029907
1280.59; 570.10639; 383418.9639998
1281.61; 606.61247; 384036.46932251
1282.63; 646.74029; 384694.82303312
1283.64; 688.4708; 385395.6565979
1284.66; 729.63523; 386138.39377954
1285.68; 768.60451; 386920.80000608
1286.70; 804.89413; 387740.14749875
1287.72; 839.5008; 388594.72309201
1288.73; 874.85932; 389485.29212851
1289.75; 914.41741; 390416.12959613
1290.77; 961.93427; 391395.33717527
1291.79; 1020.6764; 392434.34170491
1292.81; 1092.6925; 393546.65549928
1293.82; 1178.3028; 394746.11687295
1294.84; 1275.8668; 396044.89418274
1295.86; 1381.8312; 397451.5387104
1296.88; 1491.031; 398969.34396413
1297.89; 1597.2173; 400595.24226267
1298.91; 1693.7916; 402319.44905744
1299.93; 1774.708; 404126.02526146
1300.95; 1835.4438; 405994.42782562
1301.97; 1873.8612; 407901.93766123
1302.98; 1890.7293; 409826.61853535
1304.00; 1889.6994; 411750.25094934
1305.02; 1876.6567; 413660.60651811
1306.04; 1858.5773; 415552.55796425
1307.06; 1842.2151; 417427.85340117
1308.07; 1833.0456; 419293.81471699
1309.09; 1834.8081; 421161.57015132
1310.11; 1849.7411; 423044.52677724
1311.13; 1879.2792; 424957.55187759
1312.15; 1924.7278; 426916.84170815
1313.16; 1987.4078; 428939.9370858
1314.18; 2068.0093; 431045.0813607
1315.20; 2165.3498; 433249.31398092
1316.22; 2275.1891; 435565.35829221
1317.24; 2389.9821; 437998.25693969
1318.25; 2500.265; 440543.41877938
1319.27; 2597.7818; 443187.8485196
1320.29; 2679.646; 445915.61251301
1321.31; 2752.1378; 448717.17002891
1322.33; 2832.5026; 451600.5354186
1323.34; 2947.5305; 454600.99423935
1324.36; 3128.6928; 457785.86849775
1325.38; 3404.86; 461251.86907743
1326.40; 3794.6457; 465114.6546344
1327.42; 4300.7748; 469492.65777857
1328.43; 4908.3599; 474489.15635609
1329.45; 5587.7207; 480177.21487237
1330.47; 6300.8472; 486591.20544358
1331.49; 7009.3687; 493726.44029961
1332.51; 7681.4315; 501545.80605103
1333.52; 8295.4042; 509990.16954633
1334.54; 8839.6057; 518988.5067158
1335.56; 9308.7853; 528464.44850106
1336.58; 9699.26; 538337.87667362
1337.60; 10004.969; 548522.50383556
1338.61; 10216.132; 558922.0854602
1339.63; 10320.948; 569428.36530259
1340.65; 10309.438; 579922.92795629
1341.67; 10177.603; 590283.28831049
1342.69; 9930.0216; 600391.62180525
1343.70; 9579.7248; 610143.36828802
1344.72; 9145.4144; 619453.00547201
1345.74; 8647.2305; 628255.51298025
1346.76; 8102.8452; 636503.85972399
1347.77; 7525.4415; 644164.43443782
1348.79; 6924.2424; 651213.0143925
1349.81; 6307.0934; 657633.3632873
1350.83; 5683.6976; 663419.12213682
1351.85; 5067.8341; 668577.95857585
1352.86; 4477.365; 673135.72297073
1353.88; 3931.8222; 677138.14829525
1354.90; 3448.4311; 680648.50232819
1355.92; 3038.1109; 683741.16813233
1356.94; 2703.0166; 686492.72235064
1357.95; 2436.5681; 688973.04354351
1358.97; 2225.9316; 691238.94586491
1359.99; 2055.991; 693331.85600653
1361.01; 1913.358; 695279.57193574
1362.03; 1789.075; 697100.77311318
1363.04; 1679.2881; 698810.21589982
1364.06; 1584.0092; 700422.66890201
1365.08; 1504.7895; 701954.47967916
1366.10; 1442.4195; 703422.8004807
1367.12; 1395.5828; 704843.44356887
1368.13; 1360.8484; 706228.72854948
1369.15; 1333.7591; 707586.43775905
1370.17; 1310.3351; 708920.30230966
1371.19; 1288.2248; 710231.65959602
1372.21; 1266.9973; 711521.40818503
1373.22; 1247.5277; 712791.33752169
1374.24; 1230.8613; 714044.30122983
1375.26; 1217.1577; 715283.31521929
1376.28; 1205.2402; 716510.19773119
1377.30; 1192.9683; 717724.58794063
1378.31; 1178.2541; 718923.99972247
1379.33; 1160.2505; 720105.08468687
1380.35; 1140.1572; 721265.71547424
1381.37; 1121.2508; 722407.10042797
1382.39; 1108.0692; 723535.06703188
1383.40; 1105.0156; 724659.92525593
1384.42; 1114.8802; 725794.82520787
1385.44; 1137.7999; 726953.05639566
1386.46; 1171.0165; 728145.10064684
1387.48; 1209.5064; 729376.32594482
1388.49; 1247.2638; 730645.98662856
1389.51; 1278.8235; 731947.773808
1390.53; 1300.5665; 733271.69439569
1391.55; 1311.4574; 734606.70146184
1392.56; 1313.0721; 735943.35220556
1393.58; 1308.9947; 737275.85230974
1394.60; 1303.8362; 738603.10133717
1395.62; 1302.1965; 739928.68120691
1396.64; 1307.853; 741260.01917004
1397.65; 1323.3437; 742607.12596809
1398.67; 1349.9583; 743981.32527715
1399.69; 1388.0205; 745394.27024753
1400.71; 1437.266; 746857.34500675
1401.73; 1497.1213; 748381.34990063
1402.74; 1566.7559; 749976.23975352
1403.76; 1644.8921; 751650.66893403
1404.78; 1729.4762; 753411.20112016
1405.80; 1817.3947; 755261.23050699
1406.82; 1904.4408; 757199.86906887
1407.83; 1985.6781; 759221.20373163
1408.85; 2056.2253; 761314.35232961
1409.87; 2112.3339; 763464.61706973
1410.89; 2152.4977; 765655.76684568
1411.91; 2178.2606; 767873.14215894
1412.92; 2194.4217; 770106.96878239
1413.94; 2208.4671; 772355.09295393
1414.96; 2229.2627; 774624.38616953
1415.98; 2265.2646; 776930.32776346
1417.00; 2322.669; 779294.70458254
1418.01; 2403.9831; 781741.85567381
1419.03; 2507.4133; 784294.29424614
1420.05; 2627.2613; 786968.73285673
1421.07; 2755.2434; 789773.45173223
1422.09; 2882.3879; 792707.59826549
1423.10; 3000.9978; 795762.48455432
1424.12; 3106.1496; 798924.41086116
1425.14; 3196.3388; 802178.14582699
1426.16; 3273.1356; 805510.05667195
1427.18; 3340.0096; 808910.04227038
1428.19; 3400.7169; 812371.82534951
1429.21; 3457.7642; 815891.6800719
1430.23; 3511.4144; 819466.14844466
1431.25; 3559.5254; 823089.59167211
1432.27; 3598.2448; 826752.44958017
1433.28; 3623.3307; 830440.84387934
1434.30; 3631.6811; 834137.73848248
1435.32; 3622.6028; 837825.39177698
1436.34; 3598.4326; 841488.440935
1437.36; 3564.3115; 845116.75619031
1438.37; 3527.1518; 848707.2444827
1439.39; 3494.0631; 852264.04989792
1440.41; 3470.6448; 855797.016565
1441.43; 3459.5954; 859318.73534363
1442.44; 3460.0033; 862840.86942959
1443.46; 3467.5145; 866370.64959022
1444.48; 3475.341; 869908.39676375
1445.50; 3475.8636; 873446.67593515
1446.52; 3462.4248; 876971.27500142
1447.53; 3430.8595; 880463.74193726
1448.55; 3380.3815; 883904.82448014
1449.57; 3313.6168; 887277.94341921
1450.59; 3235.8031; 890571.85130967
1451.61; 3153.3993; 893781.87575981
1452.62; 3072.4996; 896909.54781263
1453.64; 2997.4807; 899960.85380545
1454.66; 2930.225; 902943.6963803
1455.68; 2870.0764; 905865.31028566
1456.70; 2814.466; 908730.31526898
1457.71; 2759.9611; 911539.83656921
1458.73; 2703.3937; 914291.77473021
1459.75; 2642.7452; 916981.9753282
1460.77; 2577.5732; 919605.83365776
1461.79; 2508.933; 922159.81915216
1462.80; 2438.8952; 924642.50918272
1463.82; 2369.8588; 927054.92318869
1464.84; 2303.873; 929400.16649876
1465.86; 2242.1325; 931682.56062447
1466.88; 2184.7275; 933906.51892056
1467.89; 2130.6491; 936075.42781134
1468.91; 2078.0032; 938190.74535591
1469.93; 2024.3703; 940251.46693674
1470.95; 1967.2615; 942254.05421713
1471.97; 1904.6227; 944192.87797238
1472.98; 1835.337; 946061.17188463
1474.00; 1759.6473; 947852.41691717
1475.02; 1679.4009; 949561.97460221
1476.04; 1598.0158; 951188.68570278
1477.06; 1520.106; 952736.08796753
1478.07; 1450.7825; 954212.92193296
1479.09; 1394.738; 955632.70503824
1480.11; 1355.3045; 957012.34649468
1481.13; 1333.7055; 958370.00114395
1482.15; 1328.6955; 959722.555786
1483.16; 1336.6893; 961083.247774
1484.18; 1352.369; 962459.90106927
1485.20; 1369.6386; 963854.13403486
1486.22; 1382.7203; 965261.68358782
1487.23; 1387.165; 966673.75770456
1488.25; 1380.5793; 968079.1278622
1489.27; 1362.9423; 969466.5443044
1490.29; 1336.4741; 970827.01731607
1491.31; 1305.1013; 972155.55411713
1492.32; 1273.6329; 973452.05746062
1493.34; 1246.8097; 974721.25590454
1494.36; 1228.4068; 975971.72100913
1495.38; 1220.5655; 977214.20398629
1496.40; 1223.4868; 978459.66077891
1497.41; 1235.5503; 979717.39764886
1498.43; 1253.8233; 980993.73567234
1499.45; 1274.8315; 982291.45910356
1500.47; 1295.3849; 983610.10507109
1501.49; 1313.2372; 984946.92391524
1502.50; 1327.399; 986298.15878555
1503.52; 1338.0348; 987660.2204564
1504.54; 1346.0075; 989030.39804645
1505.56; 1352.2515; 990406.93174261
1506.58; 1357.2156; 991788.51861431
1507.59; 1360.5906; 993173.54116344
1508.61; 1361.4324; 994559.4205862
1509.63; 1358.6424; 995942.45990699
1510.65; 1351.6367; 997318.36778925
1511.67; 1340.9576; 998683.40477481
1512.68; 1328.5982; 1000035.8604161
1513.70; 1317.9097; 1001377.4355697
1514.72; 1313.0987; 1002714.1134019
1515.74; 1318.4564; 1004056.2450727
1516.76; 1337.5302; 1005417.7931494
1517.77; 1372.4488; 1006814.8868088
1518.79; 1423.5297; 1008263.9786169
1519.81; 1489.2025; 1009779.92247
1520.83; 1566.1866; 1011374.2328732
1521.85; 1649.8298; 1013053.6883875
1522.86; 1734.5295; 1014819.3645941
1523.88; 1814.2165; 1016666.158683
1524.90; 1882.9221; 1018582.8920793
1525.92; 1935.4583; 1020553.1051031
1526.94; 1968.1828; 1022556.630237
1527.95; 1979.7292; 1024571.909128
1528.97; 1971.4994; 1026578.8104854
1529.99; 1947.688; 1028561.472826
1531.01; 1914.6799; 1030510.5343234
1532.03; 1879.8255; 1032424.1155343
1533.04; 1849.8047; 1034307.1368489
1534.06; 1828.9731; 1036168.9524973
1535.08; 1818.16; 1038019.7609443
1536.10; 1814.3145; 1039866.6548559
1537.11; 1811.1781; 1041710.3559778
1538.13; 1800.8629; 1043543.5567451
1539.15; 1775.9289; 1045351.3757141
1540.17; 1731.378; 1047113.8437823
1541.19; 1665.9947; 1048809.7545411
1542.20; 1582.648; 1050420.8218997
1543.22; 1487.4856; 1051935.0180842
1544.24; 1388.2895; 1053348.2368823
1545.26; 1292.5028; 1054663.9490048
1546.28; 1205.5197; 1055891.1160003
1547.29; 1129.7109; 1057041.1129856
1548.31; 1064.4048; 1058124.631095
1549.33; 1006.7262; 1059149.4349002
1550.35; 952.94602; 1060119.4928285
1551.37; 899.86574; 1061035.51732
1552.38; 845.80838; 1061896.5137563
1553.40; 790.96392; 1062701.6808931
1554.42; 737.07721; 1063451.9936841
1555.44; 686.68098; 1064151.0052926
1556.46; 642.19372; 1064804.7307894
1557.47; 605.19523; 1065420.7934142
1558.49; 576.0797; 1066007.2176886
1559.51; 554.12211; 1066571.2900885
1560.53; 537.84488; 1067118.7929624
1561.55; 525.49023; 1067653.7193426
1562.56; 515.4095; 1068178.3839712
1563.58; 506.25703; 1068693.7317793
1564.60; 496.98385; 1069199.6398924
1565.62; 486.71554; 1069695.0953104
1566.64; 474.63682; 1070178.2551098
1567.65; 459.98234; 1070646.4972846
1568.67; 442.16596; 1071096.6031519
1569.69; 421.00225; 1071525.1652786
1570.71; 396.91932; 1071929.2120146
1571.73; 371.05228; 1072306.9272285
1572.74; 345.14511; 1072658.2700553
1573.76; 321.25659; 1072985.2954004
1574.78; 301.33812; 1073292.0446081
1575.80; 286.79834; 1073583.9929412
1576.82; 278.17789; 1073867.1660334
1577.83; 275.02572; 1074147.1303452
1578.85; 276.00886; 1074428.0954556
1579.87; 279.22289; 1074712.3323116
1580.89; 282.6182; 1075000.0254392
1581.90; 284.43322; 1075289.5661845
1582.92; 283.53187; 1075578.1893884
1583.94; 279.57337; 1075862.783019
1584.96; 272.98847; 1076140.6735061
1585.98; 264.7824; 1076410.2105627
1586.99; 256.2236; 1076671.035126
1588.01; 248.49916; 1076923.9965445
1589.03; 242.4212; 1077170.7708612
1590.05; 238.25276; 1077413.3018865
1591.07; 235.69099; 1077653.2251433
1592.08; 234.00548; 1077891.4326284
1593.10; 232.28976; 1078127.8935775
1594.12; 229.75378; 1078361.7730068
1595.14; 225.97373; 1078591.8045081
1596.16; 221.02666; 1078816.8001078
1597.17; 215.47045; 1079036.1397238
1598.19; 210.1752; 1079250.0890064
1599.21; 206.0574; 1079459.8465492
1600.23; 203.79833; 1079667.30445
1601.25; 203.63328; 1079874.5943378
1602.26; 205.27579; 1080083.5562376
1603.28; 207.99782; 1080295.2890384
1604.30; 210.8373; 1080509.9123075
1605.32; 212.86529; 1080726.5999829
1606.34; 213.42817; 1080943.8606507
1607.35; 212.29248; 1081159.9652356
1608.37; 209.65466; 1081373.384636
1609.39; 206.02361; 1081583.1077786
1610.41; 202.0238; 1081788.7592866
1611.43; 198.18846; 1081990.5065827
1612.44; 194.80907; 1082188.8138067
1613.46; 191.88299; 1082384.1424065
1614.48; 189.16474; 1082576.7039478
1615.50; 186.29221; 1082766.3413776
1616.52; 182.93771; 1082952.5640724
1617.53; 178.93164; 1083134.7087651
1618.55; 174.32174; 1083312.1607724
1619.57; 169.35647; 1083484.558352
1620.59; 164.40739; 1083651.9179759
1621.61; 159.86271; 1083814.6513119
1622.62; 156.02927; 1083973.4823796
1623.64; 153.07159; 1084129.3026566
1624.66; 151.00037; 1084283.014521
1625.68; 149.70509; 1084435.4078438
1626.70; 149.01198; 1084587.0956086
1627.71; 148.74408; 1084738.5106638
1628.73; 148.76387; 1084889.9458596
1629.75; 148.98864; 1085041.609867
1630.77; 149.38024; 1085193.6725024
1631.78; 149.91918; 1085346.2837575
1632.80; 150.57698; 1085499.5646287
1633.82; 151.29813; 1085653.579597
1634.84; 151.99724; 1085808.3062326
1635.86; 152.56995; 1085963.6158592
1636.87; 152.91072; 1086119.2723787
1637.89; 152.92942; 1086274.9479316
1638.91; 152.56047; 1086430.2479113
1639.93; 151.76325; 1086584.7363502
1640.95; 150.51677; 1086737.9559225
1641.96; 148.81444; 1086889.4426058
1642.98; 146.66391; 1087038.7401334
1644.00; 144.09332; 1087185.4209123
1645.02; 141.16129; 1087329.1170144
1646.04; 137.96403; 1087469.5584444
1647.05; 134.63321; 1087606.6092424
1648.07; 131.32123; 1087740.2885832
1649.09; 128.17591; 1087870.7661244
1650.11; 125.31191; 1087998.32824
1651.13; 122.78859; 1088123.3217217
1652.14; 120.60249; 1088246.0898537
1653.16; 118.6974; 1088366.9186816
1654.18; 116.98777; 1088486.0071852
1655.20; 115.38622; 1088603.4653779
1656.22; 113.82384; 1088719.3331382
1657.23; 112.25589; 1088833.6047907
1658.25; 110.65197; 1088946.2437207
1659.27; 108.97762; 1089057.1782347
1660.29; 107.1787; 1089166.2815285
1661.31; 105.1795; 1089273.3497212
1662.32; 102.89954; 1089378.0970147
1663.34; 100.28525; 1089480.1830714
1664.36; 97.344381; 1089579.2754511
1665.38; 94.167596; 1089675.1340004
1666.40; 90.924392; 1089767.6911076
1667.41; 87.829444; 1089857.097692
1668.43; 85.086858; 1089943.7124423
1669.45; 82.829497; 1090028.0292959
1670.47; 81.074385; 1090110.5595211
1671.49; 79.711283; 1090191.7021676
1672.50; 78.530982; 1090271.6433182
1673.52; 77.286321; 1090350.3174577
1674.54; 75.767339; 1090427.4453389
1675.56; 73.866512; 1090502.6382609
1676.57; 71.612863; 1090575.537065
1677.59; 69.163804; 1090645.9428326
1678.61; 66.757463; 1090713.8990495
1679.63; 64.641011; 1090779.700809
1680.65; 62.997882; 1090843.8299345
1681.66; 61.89642; 1090906.8378192
1682.68; 61.274688; 1090969.2128074
1683.70; 60.964022; 1091031.2715507
1684.72; 60.741534; 1091093.1038116
1685.74; 60.393413; 1091154.5816998
1686.75; 59.768981; 1091215.4239434
1687.77; 58.810334; 1091275.2903253
1688.79; 57.551717; 1091333.8754898
1689.81; 56.093218; 1091390.9759652
1690.83; 54.561081; 1091446.5167909
1691.84; 53.069641; 1091500.5393951
1692.86; 51.697009; 1091553.1647197
1693.88; 50.479797; 1091604.550975
1694.90; 49.424246; 1091654.8627246
1695.92; 48.525181; 1091704.2592654
1696.93; 47.782338; 1091752.8996237
1697.95; 47.20618; 1091800.9534781
1698.97; 46.811013; 1091848.6050691
1699.99; 46.59941; 1091896.0412581
1701.01; 46.54618; 1091943.4232608
1702.02; 46.590558; 1091990.8504386
1703.04; 46.642012; 1092038.3299945
1704.06; 46.599324; 1092085.7660952
1705.08; 46.376955; 1092132.975834
1706.10; 45.92937; 1092179.7299504
1707.11; 45.264306; 1092225.8070609
1708.13; 44.439872; 1092271.0449331
1709.15; 43.546175; 1092315.3730605
1710.17; 42.677768; 1092358.8171872
1711.19; 41.906336; 1092401.4760286
1712.20; 41.262691; 1092443.479668
1713.22; 40.733516; 1092484.9446296
1714.24; 40.27283; 1092525.9406324
1715.26; 39.823049; 1092566.4787782
1716.28; 39.337473; 1092606.522628
1717.29; 38.796146; 1092646.0154305
1718.31; 38.21006; 1092684.9116228
1719.33; 37.613221; 1092723.2002589
1720.35; 37.046561; 1092760.9120594
1721.37; 36.540321; 1092798.1085293
1722.38; 36.1016; 1092834.8583999
1723.40; 35.711378; 1092871.2110417
1724.42; 35.33154; 1092907.1770252
1725.44; 34.918692; 1092942.7227467
1726.45; 34.439257; 1092977.7804244
1727.47; 33.880209; 1093012.2690151
1728.49; 33.251722; 1093046.1178332
1729.51; 32.581275; 1093079.2841652
1730.53; 31.901956; 1093111.7589794
1731.54; 31.239795; 1093143.5597421
1732.56; 30.605138; 1093174.7144525
1733.58; 29.991352; 1093205.2443546
1734.60; 29.381228; 1093235.1531772
1735.62; 28.758468; 1093264.4280571
1736.63; 28.11959; 1093293.0525861
1737.65; 27.481361; 1093321.0274257
1738.67; 26.880407; 1093348.3905199
1739.69; 26.364425; 1093375.2283674
1740.71; 25.977474; 1093401.6723145
1741.72; 25.743988; 1093427.8785837
1742.74; 25.656839; 1093453.996139
1743.76; 25.673593; 1093480.1307488
1744.78; 25.722723; 1093506.3153709
1745.80; 25.71854; 1093532.4957352
1746.81; 25.581081; 1093558.5361713
1747.83; 25.255795; 1093584.2454806
1748.85; 24.727966; 1093609.4174833
1749.87; 24.028168; 1093633.8771215
1750.89; 23.227331; 1093657.5215419
1751.90; 22.422467; 1093680.3466454
1752.92; 21.716213; 1093702.4528127
1753.94; 21.194705; 1093724.0281077
1754.96; 20.908652; 1093745.3122136
1755.98; 20.861816; 1093766.5486417
1756.99; 21.00956; 1093787.9354672
1758.01; 21.268003; 1093809.5853769
1759.03; 21.531937; 1093831.5039592
1760.05; 21.697637; 1093853.5912173
1761.07; 21.685456; 1093875.6660755
1762.08; 21.457004; 1093897.5083796
1763.10; 21.02301; 1093918.9088968
1764.12; 20.440215; 1093939.7161541
1765.14; 19.798404; 1093959.8700755
1766.16; 19.201064; 1093979.4159306
1767.17; 18.74451; 1093998.4970324
1768.19; 18.500237; 1094017.329475
1769.21; 18.503898; 1094036.1656443
1770.23; 18.752137; 1094055.2545101
1771.24; 19.206431; 1094074.8058281
1772.26; 19.801688; 1094094.9630916
1773.28; 20.457014; 1094115.7874493
1774.30; 21.086699; 1094137.2527994
1775.32; 21.610433; 1094159.2512881
1776.33; 21.96261; 1094181.6082773
1777.35; 22.10068; 1094204.1058162
1778.37; 22.011981; 1094226.5130632
1779.39; 21.717625; 1094248.6206684
1780.41; 21.271544; 1094270.2741821
1781.42; 20.753158; 1094291.4000013
1782.44; 20.253575; 1094312.0172667
1783.46; 19.857309; 1094332.23115
1784.48; 19.623509; 1094352.2070352
1785.50; 19.571703; 1094372.1301847
1786.51; 19.67648; 1094392.1599926
1787.53; 19.873346; 1094412.390201
1788.55; 20.074797; 1094432.825478
1789.57; 20.192493; 1094453.3805649
1790.59; 20.159403; 1094473.9019674
1791.60; 19.945701; 1094494.20583
1792.62; 19.564053; 1094514.1211913
1793.64; 19.063167; 1094533.5266727
1794.66; 18.51198; 1094552.3710693
1795.68; 17.979488; 1094570.6734125
1796.69; 17.516188; 1094588.5041363
1797.71; 17.142149; 1094605.9541043
1798.73; 16.844422; 1094623.100999
1799.75; 16.583583; 1094639.9823708
1800.77; 16.306732; 1094656.58192
1801.78; 15.96288; 1094672.8314431
1802.80; 15.516607; 1094688.6266797
1803.82; 14.956897; 1094703.8521557
1804.84; 14.299691; 1094718.408624
1805.86; 13.584309; 1094732.236864
1806.87; 12.865138; 1094745.3330192
1807.89; 12.200669; 1094757.7527733
1808.91; 11.642166; 1094769.6039955
1809.93; 11.224134; 1094781.0296799
1810.95; 10.958351; 1094792.1848087
1811.96; 10.83264; 1094803.2119692
1812.98; 10.814729; 1094814.2208963
1814.00; 10.860473; 1094825.2763891
1815.02; 10.924663; 1094836.3972246
1816.04; 10.971795; 1094847.566038
1817.05; 10.984004; 1094858.7472803
1818.07; 10.963962; 1094869.9081201
1819.09; 10.931874; 1094881.036296
1820.11; 10.917489; 1094892.149829
1821.12; 10.949533; 1094903.2959813
1822.14; 11.04581; 1094914.540139
1823.16; 11.206951; 1094925.9483319
1824.18; 11.415563; 1094937.5688822
1825.20; 11.640742; 1094949.418655
1826.21; 11.846285; 1094961.4776623
1827.23; 11.999905; 1094973.6930482
1828.25; 12.080742; 1094985.9907218
1829.27; 12.083302; 1094998.2910021
1830.29; 12.017255; 1095010.5240491
1831.30; 11.903719; 1095022.6415211
1832.32; 11.769478; 1095034.6223417
1833.34; 11.640699; 1095046.4720709
1834.36; 11.537436; 1095058.2166824
1835.38; 11.469737; 1095069.8923796
1836.39; 11.435798; 1095081.5335283
1837.41; 11.42239; 1095093.161028
1838.43; 11.40769; 1095104.7735642
1839.45; 11.366399; 1095116.3440681
1840.47; 11.276533; 1095127.8230923
1841.48; 11.126625; 1095139.1495163
1842.50; 10.921461; 1095150.2670918
1843.52; 10.684351; 1095161.1432997
1844.54; 10.454498; 1095171.7855273
1845.56; 10.279305; 1095182.2494159
1846.57; 10.20309; 1095192.6357214
1847.59; 10.255094; 1095203.074965
1848.61; 10.440259; 1095213.7026985
1849.63; 10.735745; 1095224.6312235
1850.65; 11.094563; 1095235.9250103
1851.66; 11.455587; 1095247.5863036
1852.68; 11.757224; 1095259.5546505
1853.70; 11.950962; 1095271.7202143
1854.72; 12.011106; 1095283.947002
1855.74; 11.938324; 1095296.0997007
1856.75; 11.756564; 1095308.0673755
1857.77; 11.50485; 1095319.7788162
1858.79; 11.22676; 1095331.2071735
1859.81; 10.96068; 1095342.3646724
1860.83; 10.733252; 1095353.2906598
1861.84; 10.557143; 1095364.0373754
1862.86; 10.432814; 1095374.6575302
1863.88; 10.352938; 1095385.196374
1864.90; 10.307596; 1095395.6890616
1865.91; 10.288625; 1095406.1624379
1866.93; 10.292047; 1095416.6392974
1867.95; 10.318334; 1095427.1429166
1868.97; 10.370926; 1095437.7000721
1869.99; 10.453802; 1095448.3415911
1871.00; 10.569011; 1095459.100388
1872.02; 10.714882; 1095470.0076757
1873.04; 10.885308; 1095481.0884495
1874.06; 11.070163; 1095492.3573981
1875.08; 11.256632; 1095503.8161639
1876.09; 11.431024; 1095515.4524531
1877.11; 11.580617; 1095527.241022
1878.13; 11.695106; 1095539.1461348
1879.15; 11.767368; 1095551.1248076
1880.17; 11.793482; 1095563.1300635
1881.18; 11.772098; 1095575.1135511
1882.20; 11.703482; 1095587.0271907
1883.22; 11.588646; 1095598.8239323
1884.24; 11.428982; 1095610.4581432
1885.26; 11.2267; 1095621.8864392
1886.27; 10.986114; 1095633.069829
1887.29; 10.715517; 1095643.9777626
1888.31; 10.429033; 1095654.594068
1889.33; 10.147652; 1095664.9239399
1890.35; 9.8986414; 1095675.0003297
1891.36; 9.7128358; 1095684.8875774
1892.38; 9.6198729; 1095694.6801929
1893.40; 9.6421497; 1095704.4954852
1894.42; 9.7889136; 1095714.4601768
1895.44; 10.052207; 1095724.6928901
1896.45; 10.406179; 1095735.2859313
1897.47; 10.810513; 1095746.2905666
1898.49; 11.217599; 1095757.7095985
1899.51; 11.581899; 1095769.499472
1900.53; 11.869146; 1095781.5817499
1901.54; 12.06294; 1095793.8613019
1902.56; 12.166964; 1095806.2467463
1903.58; 12.202329; 1095818.6681904
1904.60; 12.20101; 1095831.0882919
1905.62; 12.197464; 1095843.5047841
1906.63; 12.220893; 1095855.9451254
1907.65; 12.29018; 1095868.4559979
1908.67; 12.412457; 1095881.0913438
1909.69; 12.584956; 1095893.9022857
1910.71; 12.798829; 1095906.930941
1911.72; 13.043289; 1095920.2084467
1912.74; 13.308717; 1095933.756146
1913.76; 13.588161; 1095947.5883071
1914.78; 13.877453; 1095961.7149554
1915.79; 14.174594; 1095976.1440802
1916.81; 14.479037; 1095990.8831148
1917.83; 14.791098; 1096005.9398143
1918.85; 15.111265; 1096021.3224301
1919.87; 15.439022; 1096037.0386881
1920.88; 15.771095; 1096053.0929821
1921.90; 16.099637; 1096069.4817175
1922.92; 16.41143; 1096086.1878451
1923.94; 16.689304; 1096103.1768365
1924.96; 16.916376; 1096120.3969771
1925.97; 17.08254; 1096137.7862653
1926.99; 17.191317; 1096155.286284
1928.01; 17.264336; 1096172.8606331
1929.03; 17.340897; 1096190.5129183
1930.05; 17.471388; 1096208.2980369
1931.06; 17.705427; 1096226.3213979
1932.08; 18.077749; 1096244.7237665
1933.10; 18.596082; 1096263.653776
1934.12; 19.235138; 1096283.2343162
1935.14; 19.939079; 1096303.5314386
1936.15; 20.632201; 1096324.5341294
1937.17; 21.234859; 1096346.1502995
1938.19; 21.680022; 1096368.2196264
1939.21; 21.925769; 1096390.5391133
1940.23; 21.960583; 1096412.8940393
1941.24; 21.800842; 1096435.0863559
1942.26; 21.482401; 1096456.9545133
1943.28; 21.049735; 1096478.3822352
1944.30; 20.546242; 1096499.2974231
1945.32; 20.008139; 1096519.6648457
1946.33; 19.462542; 1096539.4768738
1947.35; 18.92867; 1096558.7454429
1948.37; 18.420309; 1096577.496523
1949.39; 17.947902; 1096595.7667126
1950.41; 17.519564; 1096613.6008731
1951.42; 17.141413; 1096631.0500914
1952.44; 16.818064; 1096648.1701551
1953.46; 16.553951; 1096665.0213627
1954.48; 16.355198; 1096681.6702489
1955.50; 16.230956; 1096698.1926619
1956.51; 16.192722; 1096714.6761545
1957.53; 16.250827; 1096731.218795
1958.55; 16.408577; 1096747.922018
1959.57; 16.656101; 1096764.8772096
1960.58; 16.966815; 1096782.1486946
1961.60; 17.299102; 1096799.7584342
1962.62; 17.604169; 1096817.6787182
1963.64; 17.83862; 1096835.8376635
1964.66; 17.978078; 1096854.1385716
1965.67; 18.027078; 1096872.4893586
1966.69; 18.021144; 1096890.8341057
1967.71; 18.019323; 1096909.1769984
1968.73; 18.088603; 1096927.5904158
1969.75; 18.284654; 1096946.2034047
1970.76; 18.634774; 1096965.1728006
1971.78; 19.128488; 1096984.6447755
1972.80; 19.718816; 1097004.7176788
1973.82; 20.333816; 1097025.4166261
1974.84; 20.894707; 1097046.6865365
1975.85; 21.334907; 1097068.4045514
1976.87; 21.614293; 1097090.4069691
1977.89; 21.724841; 1097112.5219194
1978.91; 21.686821; 1097134.5981675
1979.93; 21.537841; 1097156.5227603
1980.94; 21.319125; 1097178.22471
1981.96; 21.063934; 1097199.6668862
1982.98; 20.791781; 1097220.8320216
1984.00; 20.509712; 1097241.7100229
1985.02; 20.219215; 1097262.2923113
1986.03; 19.925251; 1097282.5753574
1987.05; 19.643194; 1097302.5712809
1988.07; 19.400278; 1097322.319927
1989.09; 19.230268; 1097341.8955101
1990.11; 19.162649; 1097361.40226
1991.12; 19.209975; 1097380.9571857
1992.14; 19.358106; 1097400.6629018
1993.16; 19.563622; 1097420.5778244
1994.18; 19.760695; 1097440.6933591
1995.20; 19.876681; 1097460.9269631
1996.21; 19.852652; 1097481.1361062
1997.23; 19.662949; 1097501.1521398
1998.25; 19.327479; 1097520.8266795
1999.27; 18.912089; 1097540.0783698
2000.29; 18.515665; 1097558.9265177
2001.30; 18.246615; 1097577.5007846
2002.32; 18.194885; 1097596.0223928
2003.34; 18.40745; 1097614.7603825
2004.36; 18.874611; 1097633.973922
2005.37; 19.531487; 1097653.8561326
2006.39; 20.274599; 1097674.4947992
2007.41; 20.988869; 1097695.860562
2008.43; 21.577093; 1097717.825112
2009.45; 21.983173; 1097740.2030333
2010.46; 22.20238; 1097762.8040982
2011.48; 22.276103; 1097785.48021
2012.50; 22.273485; 1097808.1536565
2013.52; 22.26652; 1097830.8200132
2014.54; 22.307064; 1097853.5276414
2015.55; 22.413231; 1097876.343343
2016.57; 22.569168; 1097899.3177821
2017.59; 22.737381; 1097922.463455
2018.61; 22.878418; 1097945.752697
2019.63; 22.970264; 1097969.1354343
2020.64; 23.020165; 1097992.5689686
2021.66; 23.064539; 1098016.0476737
2022.68; 23.157129; 1098039.6206318
2023.70; 23.349837; 1098063.3897587
2024.72; 23.673248; 1098087.4881033
2025.73; 24.123767; 1098112.0450568
2026.75; 24.661679; 1098137.1495814
2027.77; 25.220309; 1098162.8227674
2028.79; 25.722521; 1098189.0071838
2029.81; 26.098456; 1098215.5742856
2030.82; 26.29857; 1098242.3450948
2031.84; 26.298499; 1098269.1158314
2032.86; 26.095898; 1098295.6803292
2033.88; 25.702677; 1098321.8445455
2034.90; 25.137555; 1098347.4334922
2035.91; 24.423005; 1098372.2950576
2036.93; 23.587905; 1098396.3065268
2037.95; 22.673779; 1098419.3874554
2038.97; 21.740052; 1098441.51789
2039.99; 20.863393; 1098462.7559242
2041.00; 20.128367; 1098483.2457328
2042.02; 19.610342; 1098503.2082144
2043.04; 19.355517; 1098522.9112958
2044.06; 19.365138; 1098542.6241703
2045.08; 19.59053; 1098562.5664844
2046.09; 19.94234; 1098582.866926
2047.11; 20.312441; 1098603.5441145
2048.13; 20.60225; 1098624.5163162
2049.15; 20.748488; 1098645.6373813
2050.17; 20.737864; 1098666.7476315
2051.18; 20.605748; 1098687.7233941
2052.20; 20.4193; 1098708.5093607
2053.22; 20.250872; 1098729.1238741
2054.24; 20.150817; 1098749.6365366
2055.25; 20.128949; 1098770.1269381
2056.27; 20.150793; 1098790.6395755
2057.29; 20.149687; 1098811.1510875
2058.31; 20.050436; 1098831.5615665
2059.33; 19.796545; 1098851.7135953
2060.34; 19.372192; 1098871.4336511
2061.36; 18.81215; 1098890.5836076
2062.38; 18.196965; 1098909.1073329
2063.40; 17.635377; 1098927.0593861
2064.42; 17.239557; 1098944.6085112
2065.43; 17.100341; 1098962.0159208
2066.45; 17.268859; 1098979.594874
2067.47; 17.748385; 1098997.6619641
2068.49; 18.496973; 1099016.4910841
2069.51; 19.438481; 1099036.2786186
2070.52; 20.477916; 1099057.1242535
2071.54; 21.516808; 1099079.0274352
2072.56; 22.465397; 1099101.8962403
2073.58; 23.250183; 1099125.5639237
2074.60; 23.817071; 1099149.8086745
2075.61; 24.131563; 1099174.3735645
2076.63; 24.177753; 1099198.9854735
2077.65; 23.95751; 1099223.3731853
2078.67; 23.490374; 1099247.285372
2079.69; 22.813733; 1099270.5087681
2080.70; 21.982255; 1099292.8857547
2081.72; 21.065306; 1099314.329327
2082.74; 20.14155; 1099334.8325554
2083.76; 19.290638; 1099354.4695924
2084.78; 18.582928; 1099373.3862108
2085.79; 18.068983; 1099391.779656
2086.81; 17.771093; 1099409.8698623
2087.83; 17.678913; 1099427.866233
2088.85; 17.750628; 1099445.9356068
2089.87; 17.91987; 1099464.1772608
2090.88; 18.107263; 1099482.6096731
2091.90; 18.234383; 1099501.1714879
2092.92; 18.237263; 1099519.736235
2093.94; 18.076732; 1099538.1375678
2094.96; 17.743613; 1099556.1998006
2095.97; 17.25809; 1099573.7677916
2096.99; 16.663806; 1099590.7308267
2098.01; 16.018362; 1099607.0368278
2099.03; 15.382368; 1099622.6954151
2100.04; 14.809167; 1099637.770508
2101.06; 14.336859; 1099652.3648123
2102.08; 13.983577; 1099666.5994903
2103.10; 13.74626; 1099680.59259
2104.12; 13.602719; 1099694.4395713
2105.13; 13.516436; 1099708.1987194
2106.15; 13.443337; 1099721.8834564
2107.17; 13.339597; 1099735.4625903
2108.19; 13.169276; 1099748.8683454
2109.21; 12.9105; 1099762.0106771
2110.22; 12.55891; 1099774.7951052
2111.24; 12.127556; 1099787.1404334
2112.26; 11.643108; 1099798.9926147
2113.28; 11.139217; 1099810.3318567
2114.30; 10.648659; 1099821.1717325
2115.31; 10.196328; 1099831.5511539
2116.33; 9.7949004; 1099841.5219399
2117.35; 9.4442368; 1099851.1357654
2118.37; 9.1343655; 1099860.4341553
2119.39; 8.8508444; 1099869.443933
2120.40; 8.5806067; 1099878.1786203
2121.42; 8.3164286; 1099886.6443858
2122.44; 8.0588197; 1099894.8479165
2123.46; 7.8151454; 1099902.8033972
2124.48; 7.5967505; 1099910.5365614
2125.49; 7.4153862; 1099918.0851046
2126.51; 7.2801918; 1099925.4960258
2127.53; 7.1959557; 1099932.8211981
2128.55; 7.1626693; 1099940.1124864
2129.57; 7.1758565; 1099947.4171986
2130.58; 7.2270402; 1099954.7740137
2131.60; 7.3040208; 1099962.2091916
2132.62; 7.3911561; 1099969.7330696
2133.64; 7.4702402; 1099977.3374517
2134.66; 7.5225847; 1099984.9951183
2135.67; 7.5324494; 1099992.6628268
2136.69; 7.4912122; 1100000.2885575
2137.71; 7.4009775; 1100007.8224332
2138.73; 7.2760729; 1100015.2291615
2139.75; 7.1412848; 1100022.4986813
2140.76; 7.0266788; 1100029.6515371
2141.78; 6.9600951; 1100036.7366135
2142.80; 6.9594111; 1100043.8209937
2143.82; 7.0269957; 1100050.9741722
2144.84; 7.1482492; 1100058.2507814
2145.85; 7.2948733; 1100065.6766476
2146.87; 7.4319869; 1100073.2420896
2147.89; 7.5269447; 1100080.9041945
2148.91; 7.5571999; 1100088.5970979
2149.92; 7.5149503; 1100096.246993
2150.94; 7.4074579; 1100103.7874655
2151.96; 7.2533992; 1100111.1711129
2152.98; 7.076829; 1100118.3750194
2154.00; 6.9009185; 1100125.3998566
2155.01; 6.7433836; 1100132.2643301
2156.03; 6.6146391; 1100138.9977473
2157.05; 6.5185714; 1100145.6333716
2158.07; 6.4549003; 1100152.2041816
2159.09; 6.4217119; 1100158.7412072
2160.10; 6.4169878; 1100165.2734239
2161.12; 6.4386547; 1100171.8276965
2162.14; 6.4834781; 1100178.4275974
2163.16; 6.5456896; 1100185.090827
2164.18; 6.6163324; 1100191.8259679
2165.19; 6.6839487; 1100198.6299392
2166.21; 6.7365972; 1100205.4875045
2167.23; 6.7645886; 1100212.3735638
2168.25; 6.7629958; 1100219.2580017
2169.27; 6.7330662; 1100226.1119725
2170.28; 6.6820589; 1100232.9140201
2171.30; 6.6215635; 1100239.6544861
2172.32; 6.564807; 1100246.3371763
2173.34; 6.5236688; 1100252.9779897
2174.36; 6.5060806; 1100259.600899
2175.37; 6.5142742; 1100266.232149
2176.39; 6.544103; 1100272.8937635
2177.41; 6.5854975; 1100279.5975158
2178.43; 6.624038; 1100286.3405006
2179.45; 6.6435723; 1100293.1033706
2180.46; 6.6296577; 1100299.852076
2181.48; 6.5733461; 1100306.5434586
2182.50; 6.4745017; 1100313.134222
2183.52; 6.3436267; 1100319.5917602
2184.54; 6.2012551; 1100325.9043703
2185.55; 6.0744758; 1100332.0879246
2186.57; 5.9909853; 1100338.1864891
2187.59; 5.9720101; 1100344.2657378
2188.61; 6.0260944; 1100350.4000418
2189.63; 6.1458003; 1100356.6562013
2190.64; 6.308675; 1100363.0781602
2191.66; 6.4825532; 1100369.6771197
2192.68; 6.6338038; 1100376.4300457
2193.70; 6.736036; 1100383.2870396
2194.71; 6.7765035; 1100390.1852278
2195.73; 6.7581482; 1100397.064731
2196.75; 6.6967053; 1100403.881688
2197.77; 6.6140194; 1100410.6144743
2198.79; 6.5300485; 1100417.2617819
2199.80; 6.4564515; 1100423.834171
2200.82; 6.393988; 1100430.3429748
2201.84; 6.3344578; 1100436.7911795
2202.86; 6.2661546; 1100443.1698545
2203.88; 6.1804799; 1100449.4613164
2204.89; 6.0769804; 1100455.6474202
2205.91; 5.9647658; 1100461.7192944
2206.93; 5.8597535; 1100467.6842706
2207.95; 5.778864; 1100473.5669048
2208.97; 5.7335028; 1100479.4033632
2209.98; 5.7249231; 1100485.231088
2211.00; 5.7433104; 1100491.0775301
2212.02; 5.7709568; 1100496.9521151
2213.04; 5.7883187; 1100502.8443738
2214.06; 5.78067; 1100508.7288464
2215.07; 5.7428978; 1100514.5748685
2216.09; 5.6807545; 1100520.3576315
2217.11; 5.6082576; 1100526.0665958
2218.13; 5.542361; 1100531.70848
2219.15; 5.4969597; 1100537.3041479
2220.16; 5.4784165; 1100542.8809394
2221.18; 5.4840988; 1100548.4635153
2222.20; 5.5042301; 1100554.0665841
2223.22; 5.5261386; 1100559.6919547
2224.24; 5.5392098; 1100565.3306313
2225.25; 5.5387459; 1100570.9688356
2226.27; 5.5274884; 1100576.5955803
2227.29; 5.5144944; 1100582.2090976
2228.31; 5.5119956; 1100587.8200712
2229.33; 5.5314642; 1100593.4508631
2230.34; 5.5802016; 1100599.1312675
2231.36; 5.6593912; 1100604.8922836
2232.38; 5.7639313; 1100610.7597169
2233.40; 5.8837558; 1100616.7491265
2234.42; 6.0059857; 1100622.8629607
2235.43; 6.1172068; 1100629.0900132
2236.45; 6.2053894; 1100635.4068318
2237.47; 6.2612791; 1100641.7805438
2238.49; 6.2793379; 1100648.1726389
2239.51; 6.2583818; 1100654.5434015
2240.52; 6.2019591; 1100660.8567283
2241.54; 6.1183292; 1100667.0849234
2242.56; 6.0197857; 1100673.2128055
2243.58; 5.9211179; 1100679.2402481
2244.59; 5.8372539; 1100685.1823206
2245.61; 5.7804893; 1100691.0666093
2246.63; 5.758027; 1100696.9280324
2247.65; 5.7706624; 1100702.8023177
2248.67; 5.8132475; 1100708.7199528
2249.68; 5.8770603; 1100714.7025466
2250.70; 5.9535369; 1100720.7629903
2251.72; 6.0382323; 1100726.9096502
2252.74; 6.1336041; 1100733.1533945
2253.76; 6.2494289; 1100739.5150435
2254.77; 6.4003685; 1100746.0303424
2255.79; 6.6012011; 1100752.7500803
2256.81; 6.8611955; 1100759.7344812
2257.83; 7.1796357; 1100767.0430405
2258.85; 7.5443464; 1100774.7228596
2259.86; 7.9341603; 1100782.7994924
2260.88; 8.3248744; 1100791.2738553
2261.90; 8.6968248; 1100800.1268477
2262.92; 9.041346; 1100809.3305478
2263.94; 9.3634768; 1100818.8621631
2264.95; 9.6794339; 1100828.7154092
2265.97; 10.009279; 1100838.9044229
2266.99; 10.367178; 1100849.4577628
2268.01; 10.752948; 1100860.4037999
2269.03; 11.148549; 1100871.7525418
2270.04; 11.521741; 1100883.4811766
2271.06; 11.836593; 1100895.5303174
2272.08; 12.067848; 1100907.8148662
2273.10; 12.214253; 1100920.2484491
2274.12; 12.30573; 1100932.7751513
2275.13; 12.400859; 1100945.3986907
2276.15; 12.574191; 1100958.1986741
2277.17; 12.896346; 1100971.3265975
2278.19; 13.412557; 1100984.9800017
2279.21; 14.126213; 1100999.3598769
2280.22; 14.992755; 1101014.6218541
2281.24; 15.926296; 1101030.834136
2282.26; 16.817562; 1101047.9536888
2283.28; 17.558438; 1101065.8274207
2284.30; 18.066577; 1101084.2184168
2285.31; 18.303759; 1101102.8508533
2286.33; 18.283645; 1101121.4628153
2287.35; 18.067729; 1101139.8549834
2288.37; 17.751314; 1101157.9250551
2289.38; 17.443638; 1101175.6819258
2290.40; 17.246996; 1101193.2386235
2291.42; 17.239171; 1101210.787356
2292.44; 17.461901; 1101228.5628174
2293.46; 17.916283; 1101246.8008205
2294.47; 18.564534; 1101265.6987153
2295.49; 19.33665; 1101285.3825902
2296.51; 20.140404; 1101305.8846526
2297.53; 20.873405; 1101327.1328779
2298.55; 21.436288; 1101348.9540937
2299.56; 21.746294; 1101371.0908829
2300.58; 21.750247; 1101393.2316956
2301.60; 21.435488; 1101415.0520969
2302.62; 20.836902; 1101436.2631641
2303.64; 20.038039; 1101456.6610234
2304.65; 19.164824; 1101476.1699871
2305.67; 18.371486; 1101494.8713672
2306.69; 17.819933; 1101513.0112899
2307.71; 17.655486; 1101530.9838132
2308.73; 17.983213; 1101549.2899482
2309.74; 18.849512; 1101568.4779381
2310.76; 20.232969; 1101589.0742271
2311.78; 22.046739; 1101611.5168563
2312.80; 24.152294; 1101636.102849
2313.82; 26.381838; 1101662.9584218
2314.83; 28.564822; 1101692.0361781
2315.85; 30.553175; 1101723.1379922
2316.87; 32.240494; 1101755.957424
2317.89; 33.572118; 1101790.1323913
2318.91; 34.545368; 1101825.2980857
2319.92; 35.201476; 1101861.1316688
2320.94; 35.612279; 1101897.3834322
2321.96; 35.865341; 1101933.892802
2322.98; 36.050643; 1101970.5908014
2324.00; 36.250869; 1102007.492622
2325.01; 36.535877; 1102044.6845679
2326.03; 36.960722; 1102082.3089875
2327.05; 37.565839; 1102120.5493909
2328.07; 38.377783; 1102159.6163177
2329.09; 39.409221; 1102199.7332045
2330.10; 40.657591; 1102241.120878
2331.12; 42.102682; 1102283.9795911
2332.14; 43.704329; 1102328.4687121
2333.16; 45.402019; 1102374.6860085
2334.18; 47.118275; 1102422.6503793
2335.19; 48.766991; 1102472.2930715
2336.21; 50.26638; 1102523.4620771
2337.23; 51.554216; 1102575.9420439
2338.25; 52.601253; 1102629.4878495
2339.26; 53.417982; 1102683.8650503
2340.28; 54.050832; 1102738.8864652
2341.30; 54.566786; 1102794.4330982
2342.32; 55.029409; 1102850.4506618
2343.34; 55.473187; 1102906.9199727
2344.35; 55.88513; 1102963.8086234
2345.37; 56.201609; 1103021.0194358
2346.39; 56.324102; 1103078.3549415
2347.41; 56.151015; 1103135.5142519
2348.43; 55.616276; 1103192.1292214
2349.44; 54.721555; 1103247.8334032
2350.46; 53.549539; 1103302.3445231
2351.48; 52.251155; 1103355.5339444
2352.50; 51.008304; 1103407.4581965
2353.52; 49.982621; 1103458.3383474
2354.53; 49.266609; 1103508.4896294
2355.55; 48.853762; 1103558.220651
2356.57; 48.638593; 1103607.73264
2357.59; 48.447655; 1103657.0502627
2358.61; 48.092113; 1103706.0059584
2359.62; 47.425079; 1103754.2826426
2360.64; 46.385412; 1103801.5009899
2361.66; 45.014464; 1103847.3237718
2362.68; 43.441602; 1103891.5454481
2363.70; 41.844607; 1103934.1414522
2364.71; 40.398762; 1103975.2656486
2365.73; 39.230901; 1104015.2010128
2366.75; 38.391552; 1104054.2819563
2367.77; 37.851176; 1104092.8128197
2368.79; 37.518257; 1104131.0047867
2369.80; 37.270715; 1104168.9447658
2370.82; 36.989525; 1104206.5985058
2371.84; 36.585008; 1104243.840465
2372.86; 36.010442; 1104280.4975411
2373.88; 35.262675; 1104316.3934224
2374.89; 34.373177; 1104351.3838332
2375.91; 33.394618; 1104385.3781129
2376.93; 32.387546; 1104418.347237
2377.95; 31.410046; 1104450.3213082
2378.97; 30.511359; 1104481.3805554
2379.98; 29.72916; 1104511.6435577
2381.00; 29.089597; 1104541.2555117
2382.02; 28.609089; 1104570.3783296
2383.04; 28.296811; 1104599.1832624
2384.05; 28.156611; 1104627.8454777
2385.07; 28.187082; 1104656.5387105
2386.09; 28.378933; 1104685.4272396
2387.11; 28.709947; 1104714.6527267
2388.13; 29.139379; 1104744.3153574
2389.14; 29.605024; 1104774.4519939
2390.16; 30.026381; 1104805.0175537
2391.18; 30.31595; 1104835.8778827
2392.20; 30.397745; 1104866.8214751
2393.22; 30.228716; 1104897.5930041
2394.23; 29.81632; 1104927.9447312
2395.25; 29.225251; 1104957.6947753
2396.27; 28.568973; 1104986.7767574
2397.29; 27.986364; 1105015.2656683
2398.31; 27.608979; 1105043.3704177
2399.32; 27.528142; 1105071.3928782
2400.34; 27.771656; 1105099.6632258
2401.36; 28.297135; 1105128.4684876
2402.38; 29.003631; 1105157.9929323
2403.40; 29.757455; 1105188.2847377
2404.41; 30.423866; 1105219.2549203
2405.43; 30.895245; 1105250.7049469
2406.45; 31.108585; 1105282.3721442
2407.47; 31.049517; 1105313.979213
2408.49; 30.744896; 1105345.2761902
2409.50; 30.24916; 1105376.0685299
2410.52; 29.630392; 1105406.2309901
2411.54; 28.960166; 1105435.7111896
2412.56; 28.308184; 1105464.5276995
2413.58; 27.73979; 1105492.765609
2414.59; 27.313183; 1105520.5692509
2415.61; 27.073875; 1105548.1292871
2416.63; 27.04625; 1105575.6612025
2417.65; 27.224712; 1105603.3747845
2418.67; 27.568526; 1105631.4383538
2419.68; 28.00422; 1105659.945441
2420.70; 28.437245; 1105688.8933288
2421.72; 28.771297; 1105718.1812674
2422.74; 28.930629; 1105747.6313995
2423.76; 28.878998; 1105777.0289735
2424.77; 28.629386; 1105806.172453
2425.79; 28.241194; 1105834.9207697
2426.81; 27.80538; 1105863.225447
2427.83; 27.421736; 1105891.139591
2428.85; 27.174875; 1105918.8024414
2429.86; 27.115781; 1105946.4051364
2430.88; 27.253797; 1105974.1483256
2431.90; 27.560479; 1106002.2037034
2432.92; 27.982905; 1106030.689093
2433.93; 28.461196; 1106059.6613622
2434.95; 28.944062; 1106089.1251687
2435.97; 29.397514; 1106119.050569
2436.99; 29.804861; 1106149.3906317
2438.01; 30.159732; 1106180.0919374
2439.02; 30.45656; 1106211.0954012
2440.04; 30.683865; 1106242.330252
2441.06; 30.824153; 1106273.7079097
2442.08; 30.86107; 1106305.1231473
2443.10; 30.790795; 1106336.4668477
2444.11; 30.632132; 1106367.6490367
2445.13; 30.429603; 1106398.6250593
2446.15; 30.24624; 1106429.4144269
2447.17; 30.147026; 1106460.1027984
2448.19; 30.178149; 1106490.8228516
2449.20; 30.349814; 1106521.7176529
2450.22; 30.629779; 1106552.8974467
2451.24; 30.951214; 1106584.4044465
2452.26; 31.233077; 1106616.1983715
2453.28; 31.406151; 1106648.1684777
2454.29; 31.435229; 1106680.1681848
2455.31; 31.329072; 1106712.0598281
2456.33; 31.134164; 1106743.753064
2457.35; 30.914562; 1106775.2227542
2458.37; 30.72551; 1106806.4999973
2459.38; 30.591016; 1106837.6403313
2460.40; 30.493998; 1106868.6819056
2461.42; 30.382667; 1106899.6101498
2462.44; 30.190427; 1106930.3427017
2463.46; 29.861372; 1106960.7402896
2464.47; 29.371488; 1106990.6391973
2465.49; 28.737656; 1107019.8928911
2466.51; 28.011577; 1107048.4074672
2467.53; 27.261703; 1107076.1587043
2468.55; 26.55069; 1107103.1861611
2469.56; 25.91711; 1107129.5686611
2470.58; 25.367883; 1107155.3920709
2471.60; 24.883171; 1107180.7220651
2472.62; 24.430456; 1107205.5912148
2473.64; 23.981143; 1107230.0029831
2474.65; 23.522642; 1107253.9480174
2475.67; 23.061316; 1107277.4234418
2476.69; 22.615818; 1107300.445369
2477.71; 22.204364; 1107323.0484538
2478.72; 21.83181; 1107345.2722944
2479.74; 21.482264; 1107367.1403121
2480.76; 21.120586; 1107388.6401576
2481.78; 20.702618; 1107409.7145292
2482.80; 20.190705; 1107430.2677955
2483.81; 19.56921; 1107450.1884069
2484.83; 18.854714; 1107469.3816918
2485.85; 18.097347; 1107487.8040098
2486.87; 17.372399; 1107505.488362
2487.89; 16.764149; 1107522.5535426
2488.90; 16.345964; 1107539.1930287
2489.92; 16.161654; 1107555.6448948
2490.94; 16.212783; 1107572.1488079
2491.96; 16.455226; 1107588.8995176
2492.98; 16.806132; 1107606.0074351
2493.99; 17.160025; 1107623.4755999
2495.01; 17.410553; 1107641.1987911
2496.03; 17.472919; 1107658.9854686
2497.05; 17.301661; 1107676.5978132
2498.07; 16.899451; 1107693.8007252
2499.08; 16.314778; 1107710.4084652
2500.10; 15.629237; 1107726.3183541
2501.12; 14.937875; 1107741.5244666
2502.14; 14.327821; 1107756.1095702
2503.16; 13.860667; 1107770.2191312
2504.17; 13.562711; 1107784.0253855
2505.19; 13.424653; 1107797.6911025
2506.21; 13.409568; 1107811.3414639
2507.23; 13.465819; 1107825.0490861
2508.25; 13.540715; 1107838.8329492
2509.26; 13.591302; 1107852.6683077
2510.28; 13.590255; 1107866.5026012
2511.30; 13.526775; 1107880.2722743
2512.32; 13.403857; 1107893.9168224
2513.34; 13.23394; 1107907.3884019
2514.35; 13.034595; 1107920.6570568
2515.37; 12.825123; 1107933.7124782
2516.39; 12.62403; 1107946.5631963
2517.41; 12.446939; 1107959.2336436
2518.43; 12.304589; 1107971.7591842
2519.44; 12.201087; 1107984.1793639
2520.46; 12.13305; 1107996.5302852
2521.48; 12.090393; 1108008.8377837
2522.50; 12.059108; 1108021.1134356
2523.52; 12.025597; 1108033.3549745
2524.53; 11.981295; 1108045.5514158
2525.55; 11.92592; 1108057.6914876
2526.57; 11.867917; 1108069.7725154
2527.59; 11.821572; 1108081.8063654
2528.60; 11.80148; 1108093.8197627
2529.62; 11.816178; 1108105.8481216
2530.64; 11.863236; 1108117.9243835
2531.66; 11.927816; 1108130.0663855
2532.68; 11.985631; 1108142.2672408
2533.69; 12.009746; 1108154.492644
2534.71; 11.979288; 1108166.687042
2535.73; 11.887309; 1108178.7878095
2536.75; 11.745122; 1108190.7438373
2537.77; 11.581392; 1108202.5331948
2538.78; 11.435833; 1108214.1743792
2539.80; 11.349076; 1108225.7272486
2540.82; 11.351535; 1108237.2826215
2541.84; 11.454555; 1108248.9428644
2542.86; 11.646552; 1108260.7985522
2543.87; 11.895424; 1108272.9075803
2544.89; 12.156624; 1108285.2824986
2545.91; 12.384559; 1108297.8894457
2546.93; 12.543933; 1108310.6586281
2547.95; 12.617669; 1108323.5028706
2548.96; 12.609179; 1108336.3384702
2549.98; 12.538536; 1108349.1021587
2551.00; 12.434123; 1108361.7595596
2552.02; 12.32273; 1108374.3035673
2553.04; 12.221508; 1108386.7445348
2554.05; 12.134405; 1108399.0968353
2555.07; 12.054046; 1108411.3673345
2556.09; 11.968012; 1108423.5502539
2557.11; 11.866889; 1108435.6302353
2558.13; 11.75087; 1108447.592114
2559.14; 11.632215; 1108459.4332065
2560.16; 11.532506; 1108471.1728003
2561.18; 11.475563; 1108482.8544283
2562.20; 11.478542; 1108494.5390886
2563.22; 11.544508; 1108506.2908995
2564.23; 11.659295; 1108518.1595583
2565.25; 11.794013; 1108530.1653547
2566.27; 11.912622; 1108542.2918895
2567.29; 11.982217; 1108554.4892691
2568.31; 11.982774; 1108566.6872155
2569.32; 11.913254; 1108578.8143936
2570.34; 11.79221; 1108590.8183543
2571.36; 11.652816; 1108602.6804179
2572.38; 11.534001; 1108614.4215329
2573.39; 11.470503; 1108626.0980103
2574.41; 11.48482; 1108637.7890616
2575.43; 11.583227; 1108649.5802868
2576.45; 11.756614; 1108661.5480129
2577.47; 11.985322; 1108673.748554
2578.48; 12.24601; 1108686.2144633
2579.50; 12.518188; 1108698.9574384
2580.52; 12.788485; 1108711.9755642
2581.54; 13.051712; 1108725.2616442
2582.56; 13.309046; 1108738.8096784
2583.57; 13.564573; 1108752.6178285
2584.59; 13.821867; 1108766.6878927
2585.61; 14.08193; 1108781.0226902
2586.63; 14.343098; 1108795.623345
2587.65; 14.602524; 1108810.4880846
2588.66; 14.858202; 1108825.6130933
2589.68; 15.110286; 1108840.9947124
2590.70; 15.360918; 1108856.6314637
2591.72; 15.612573; 1108872.5243892
2592.74; 15.865796; 1108888.6750852
2593.75; 16.117684; 1108905.0821919
2594.77; 16.362333; 1108921.7383404
2595.79; 16.5937; 1108938.6300109
2596.81; 16.810184; 1108955.7420524
2597.83; 17.019181; 1108973.0668441
2598.84; 17.239414; 1108990.6158236
2599.86; 17.499194; 1109008.4292484
2600.88; 17.830024; 1109026.5794435
2601.90; 18.256639; 1109045.1639142
2602.92; 18.786187; 1109064.2874423
2603.93; 19.400081; 1109084.0358875
2604.95; 20.051769; 1109104.447723
2605.97; 20.672219; 1109125.4911495
2606.99; 21.18265; 1109147.0541727
2608.01; 21.511764; 1109168.9522201
2609.02; 21.613091; 1109190.9534139
2610.04; 21.477722; 1109212.8168083
2611.06; 21.138787; 1109234.3351813
2612.08; 20.666226; 1109255.3725076
2613.10; 20.153077; 1109275.8874708
2614.11; 19.696773; 1109295.9379363
2615.13; 19.38017; 1109315.6661131
2616.15; 19.256866; 1109335.2687721
2617.17; 19.343931; 1109354.9600593
2618.19; 19.622954; 1109374.9353799
2619.20; 20.048083; 1109395.3434635
2620.22; 20.558082; 1109416.2707037
2621.24; 21.088848; 1109437.7382406
2622.26; 21.583327; 1109459.709136
2623.27; 21.997084; 1109482.1012179
2624.29; 22.299393; 1109504.8010378
2625.31; 22.471133; 1109527.6756815
2626.33; 22.501516; 1109550.581254
2627.35; 22.385686; 1109573.3689167
2628.36; 22.124481; 1109595.8906832
2629.38; 21.726526; 1109618.007349
2630.40; 21.211675; 1109639.5999193
2631.42; 20.613984; 1109660.5840652
2632.44; 19.982215; 1109680.9250981
2633.45; 19.376404; 1109700.6494414
2634.47; 18.860104; 1109719.8482132
2635.49; 18.489426; 1109738.6696507
2636.51; 18.301321; 1109757.2996057
2637.53; 18.304377; 1109775.9326712
2638.54; 18.475279; 1109794.7397077
2639.56; 18.76294; 1109813.8395707
2640.58; 19.100234; 1109833.2827848
2641.60; 19.420907; 1109853.0524306
2642.62; 19.677226; 1109873.082997
2643.63; 19.853095; 1109893.2925913
2644.65; 19.968193; 1109913.6193496
2645.67; 20.071049; 1109934.0508116
2646.69; 20.222485; 1109954.6364288
2647.71; 20.474138; 1109975.4782178
2648.72; 20.848955; 1109996.7015545
2649.74; 21.330439; 1110018.4150207
2650.76; 21.865; 1110040.6726476
2651.78; 22.37757; 1110063.4520479
2652.80; 22.796004; 1110086.6573966
2653.81; 23.076453; 1110110.1482296
2654.83; 23.220967; 1110133.7861715
2655.85; 23.280808; 1110157.4850294
2656.87; 23.343466; 1110181.2476707
2657.89; 23.506875; 1110205.1766549
2658.90; 23.848779; 1110229.4536828
2659.92; 24.401039; 1110254.2928876
2660.94; 25.137165; 1110279.8814367
2661.96; 25.97706; 1110306.3249623
2662.98; 26.807337; 1110333.6136745
2663.99; 27.510652; 1110361.6183313
2665.01; 27.994939; 1110390.115971
2666.03; 28.214049; 1110418.8366557
2667.05; 28.174645; 1110447.517229
2668.06; 27.928906; 1110475.9476506
2669.08; 27.556932; 1110503.999418
2670.10; 27.145202; 1110531.6320626
2671.12; 26.767488; 1110558.8802106
2672.14; 26.472575; 1110585.8281497
2673.15; 26.28023; 1110612.5802898
2674.17; 26.184219; 1110639.2346954
2675.19; 26.159799; 1110665.8642423
2676.21; 26.173077; 1110692.5073048
2677.23; 26.190473; 1110719.1680762
2678.24; 26.187377; 1110745.825696
2679.26; 26.155327; 1110772.45069
2680.28; 26.106658; 1110799.0261411
2681.30; 26.074943; 1110825.5693077
2682.32; 26.109541; 1110852.1476939
2683.33; 26.263708; 1110878.8830156
2684.35; 26.57791; 1110905.9381815
2685.37; 27.062507; 1110933.4866458
2686.39; 27.685564; 1110961.6693552
2687.41; 28.371223; 1110990.5500356
2688.42; 29.011394; 1111020.0823828
2689.44; 29.489253; 1111050.1011698
2690.46; 29.708568; 1111080.3432098
2691.48; 29.620091; 1111110.4951845
2692.50; 29.236376; 1111140.2565535
2693.51; 28.629664; 1111169.4003157
2694.53; 27.912896; 1111197.8144393
2695.55; 27.209494; 1111225.51253
2696.57; 26.621266; 1111252.6118297
2697.59; 26.204255; 1111279.2866309
2698.60; 25.959422; 1111305.7122027
2699.62; 25.839866; 1111332.0160711
2700.64; 25.770871; 1111358.2497059
2701.66; 25.675296; 1111384.3860489
2702.68; 25.495949; 1111410.3398249
2703.69; 25.208694; 1111436.001188
2704.71; 24.823918; 1111461.2708656
2705.73; 24.378171; 1111486.0867913
2706.75; 23.920598; 1111510.4369279
2707.77; 23.499506; 1111534.3584107
2708.78; 23.153048; 1111557.9272148
2709.80; 22.905603; 1111581.24413
2710.82; 22.768927; 1111604.4219155
2711.84; 22.74575; 1111627.5761071
2712.86; 22.833303; 1111650.8194241
2713.87; 23.025281; 1111674.2581666
2714.89; 23.312078; 1111697.988856
2715.91; 23.680268; 1111722.0943466
2716.93; 24.112667; 1111746.6400011
2717.94; 24.58993; 1111771.6714888
2718.96; 25.093769; 1111797.2158632
2719.98; 25.611013; 1111823.2867692
2721.00; 26.137155; 1111849.8932651
2722.02; 26.678032; 1111877.0503503
2723.03; 27.248673; 1111904.7883234
2724.05; 27.869115; 1111933.1578804
2725.07; 28.557789; 1111962.2284768
2726.09; 29.323803; 1111992.0788431
2727.11; 30.159994; 1112022.7804156
2728.12; 31.038694; 1112054.3764671
2729.14; 31.911902; 1112086.8614067
2730.16; 32.716654; 1112120.1655489
2731.18; 33.385144; 1112154.1501849
2732.20; 33.857727; 1112188.61589
2733.21; 34.095793; 1112223.3239361
2734.23; 34.091113; 1112258.0272184
2735.25; 33.868868; 1112292.5042647
2736.27; 33.483172; 1112326.5886888
2737.29; 33.006048; 1112360.1874215
2738.30; 32.512807; 1112393.2840557
2739.32; 32.067922; 1112425.9278165
2740.34; 31.71534; 1112458.2126644
2741.36; 31.475689; 1112490.2535577
2742.38; 31.350607; 1112522.1671229
2743.39; 31.332149; 1112554.0618986
2744.41; 31.413747; 1112586.0397378
2745.43; 31.598991; 1112618.2061475
2746.45; 31.905511; 1112650.684581
2747.47; 32.363055; 1112683.628774
2748.48; 33.006719; 1112717.2281897
2749.50; 33.867576; 1112751.7039202
2750.52; 34.963282; 1112787.2950325
2751.54; 36.290777; 1112824.237477
2752.56; 37.822192; 1112862.7388361
2753.57; 39.504223; 1112902.9524306
2754.59; 41.260702; 1112944.954045
2755.61; 42.998101; 1112988.724256
2756.63; 44.613889; 1113034.1392702
2757.65; 46.007677; 1113080.9731
2758.66; 47.094564; 1113128.9133338
2759.68; 47.819156; 1113177.5911707
2760.70; 48.167528; 1113226.6236358
2761.72; 48.173755; 1113275.6624399
2762.73; 47.91795; 1113324.4408448
2763.75; 47.514403; 1113372.8084567
2764.77; 47.091064; 1113420.7451279
2765.79; 46.764464; 1113468.3493346
2766.81; 46.61623; 1113515.8026451
2767.82; 46.677585; 1113563.3184119
2768.84; 46.926371; 1113611.0874326
2769.86; 47.297554; 1113659.2343018
2770.88; 47.704048; 1113707.7949641
2771.90; 48.061528; 1113756.7195259
2772.91; 48.309898; 1113805.896917
2773.93; 48.42565; 1113855.1921388
2774.95; 48.422998; 1113904.4846614
2775.97; 48.345755; 1113953.6985533
2776.99; 48.254907; 1114002.8199659
2778.00; 48.217344; 1114051.9031418
2779.02; 48.29911; 1114101.0695516
2780.04; 48.562935; 1114150.5045241
2781.06; 49.066565; 1114200.45217
2782.08; 49.857256; 1114251.204705
2783.09; 50.959752; 1114303.0795335
2784.11; 52.359339; 1114356.3790812
2785.13; 53.98627; 1114411.3347742
2786.15; 55.710456; 1114468.0456146
2787.17; 57.353948; 1114526.4294588
2788.18; 58.723211; 1114586.2071533
2789.20; 59.655342; 1114646.9337176
2790.22; 60.065353; 1114708.0776547
2791.24; 59.978696; 1114769.1333786
2792.26; 59.536272; 1114829.7387345
2793.27; 58.967517; 1114889.7651221
2794.29; 58.538003; 1114949.3542836
2795.31; 58.487058; 1115008.8915846
2796.33; 58.974445; 1115068.9250243
2797.35; 60.05172; 1115130.0550844
2798.36; 61.664694; 1115192.8270821
2799.38; 63.682293; 1115257.6529083
2800.40; 65.938563; 1115324.7755201
2801.42; 68.271855; 1115394.273322
2802.44; 70.549179; 1115466.0893419
2803.45; 72.672067; 1115540.0663706
2804.47; 74.568986; 1115615.9743804
2805.49; 76.184489; 1115693.5269023
2806.51; 77.474761; 1115772.3928658
2807.52; 78.413754; 1115852.2146841
2808.54; 79.006834; 1115932.6402318
2809.56; 79.303593; 1116013.367867
2810.58; 79.400912; 1116094.1945695
2811.60; 79.431653; 1116175.0525652
2812.61; 79.541211; 1116256.0220851
2813.63; 79.859957; 1116337.3160752
2814.65; 80.481331; 1116419.2425971
2815.67; 81.452166; 1116502.1573871
2816.69; 82.775653; 1116586.4194297
2817.70; 84.421467; 1116672.35684
2818.72; 86.335344; 1116760.2424943
2819.74; 88.442976; 1116850.2736274
2820.76; 90.648993; 1116942.5503901
2821.78; 92.837425; 1117037.0548828
2822.79; 94.881802; 1117133.6404634
2823.81; 96.669108; 1117232.0454444
2824.83; 98.133748; 1117331.9413652
2825.85; 99.289463; 1117433.013754
2826.87; 100.24362; 1117535.0574354
2827.88; 101.18239; 1117638.0567456
2828.90; 102.32624; 1117742.220443
2829.92; 103.86846; 1117847.954057
2830.94; 105.91884; 1117955.7748689
2831.96; 108.47471; 1118066.1974445
2832.97; 111.43184; 1118179.6302478
2833.99; 114.63109; 1118296.3197495
2835.01; 117.92117; 1118416.3584171
2836.03; 121.21042; 1118539.7453981
2837.05; 124.48535; 1118666.4661127
2838.06; 127.78939; 1118796.5502013
2839.08; 131.17449; 1118930.0801734
2840.10; 134.65209; 1119067.1501863
2841.12; 138.17158; 1119207.8028942
2842.14; 141.64167; 1119351.9879986
2843.15; 144.98853; 1119499.5800687
2844.17; 148.22479; 1119650.4665122
2845.19; 151.49372; 1119804.6805831
2846.21; 155.06081; 1119962.5257983
2847.23; 159.24632; 1120124.6316828
2848.24; 164.31934; 1120291.9016777
2849.26; 170.3938; 1120465.3552099
2850.28; 177.37009; 1120645.9103093
2851.30; 184.94969; 1120834.1811168
2852.32; 192.72091; 1121030.3626843
2853.33; 200.28366; 1121234.2428082
2854.35; 207.36359; 1121445.3299982
2855.37; 213.86884; 1121663.0392518
2856.39; 219.86623; 1121886.8535826
2857.40; 225.48747; 1122116.3900921
2858.42; 230.80632; 1122351.3409645
2859.44; 235.74098; 1122591.3151052
2860.46; 240.02694; 1122835.6521732
2861.48; 243.27749; 1123083.2981618
2862.49; 245.11338; 1123332.8130047
2863.51; 245.31518; 1123582.5332764
2864.53; 243.94198; 1123830.8556883
2865.55; 241.37194; 1124076.5619054
2866.57; 238.24859; 1124319.088685
2867.58; 235.34919; 1124558.6640056
2868.60; 233.41611; 1124796.2715369
2869.62; 233.00047; 1125033.4559611
2870.64; 234.35852; 1125272.0228246
2871.66; 237.42098; 1125513.7071382
2872.67; 241.83283; 1125759.8825274
2873.69; 247.04459; 1126011.3632645
2874.71; 252.42877; 1126268.3248607
2875.73; 257.39689; 1126530.3437923
2876.75; 261.4983; 1126796.5377742
2877.76; 264.48762; 1127065.7747617
2878.78; 266.35206; 1127336.9096663
2879.80; 267.29261; 1127609.0020066
2880.82; 267.65941; 1127881.4677313
2881.84; 267.85088; 1128154.1283678
2882.85; 268.19874; 1128427.1431168
2883.87; 268.87093; 1128700.8421195
2884.89; 269.82575; 1128975.5130871
2885.91; 270.83935; 1129251.2158592
2886.93; 271.6054; 1129527.6984332
2887.94; 271.8785; 1129804.4590095
2888.96; 271.6118; 1130080.9481022
2889.98; 271.03448; 1130356.8495079
2891.00; 270.63099; 1130632.3401774
2892.02; 271.0173; 1130908.2240919
2893.03; 272.74783; 1131185.8696089
2894.05; 276.11601; 1131466.9437936
2895.07; 281.01896; 1131753.0089718
2896.09; 286.93844; 1132045.099918
2897.11; 293.05231; 1132343.4145278
2898.12; 298.44668; 1132647.2203645
2899.14; 302.36461; 1132955.0144892
2900.16; 304.41638; 1133264.8972268
2901.18; 304.68967; 1133575.0581627
2902.19; 303.73219; 1133884.2444279
2903.21; 302.41874; 1134192.0936552
2904.23; 301.74684; 1134499.2589173
2905.25; 302.61964; 1134807.3126498
2906.27; 305.66962; 1135118.4711318
2907.28; 311.15749; 1135435.2160291
2908.30; 318.95629; 1135759.8997672
2909.32; 328.61041; 1136094.4109851
2910.34; 339.44733; 1136439.9537182
2911.36; 350.71624; 1136796.9677162
2912.37; 361.72896; 1137165.1921917
2913.39; 371.98044; 1137543.8522247
2914.41; 381.22768; 1137931.9255542
2915.43; 389.50905; 1138328.4289571
2916.45; 397.09325; 1138732.6527521
2917.46; 404.36238; 1139144.2762056
2918.48; 411.6528; 1139563.320996
2919.50; 419.09673; 1139989.9433778
2920.52; 426.5163; 1140424.1185641
2921.54; 433.41503; 1140865.3163585
2922.55; 439.08599; 1141312.2869528
2923.57; 442.81926; 1141763.0578497
2924.59; 444.15363; 1142215.1870799
2925.61; 443.09477; 1142666.2384376
2926.63; 440.22262; 1143114.3660706
2927.64; 436.6387; 1143558.8454276
2928.66; 433.7507; 1144000.3849225
2929.68; 432.94328; 1144441.1025009
2930.70; 435.22345; 1144884.1411886
2931.72; 440.94271; 1145333.0018421
2932.73; 449.68196; 1145790.7586774
2933.75; 460.34243; 1146259.3674091
2934.77; 471.43039; 1146739.2632007
2935.79; 481.46972; 1147229.3786028
2936.81; 489.44009; 1147727.6074919
2937.82; 495.128; 1148231.6264345
2938.84; 499.2964; 1148739.8886246
2939.86; 503.61926; 1149252.5513032
2940.88; 510.38267; 1149772.0988412
2941.90; 522.00867; 1150303.4811381
2942.91; 540.50189; 1150853.6887385
2943.93; 566.94096; 1151430.8101683
2944.95; 601.13141; 1152042.7360007
2945.97; 641.50554; 1152695.7609534
2946.99; 685.30237; 1153393.3691935
2948.00; 729.00016; 1154135.4598987
2949.02; 768.91798; 1154918.1852268
2950.04; 801.86576; 1155734.4499656
2951.06; 825.71195; 1156574.989095
2952.07; 839.75762; 1157429.8261121
2953.09; 844.84852; 1158289.8454504
2954.11; 843.21271; 1159148.1995989
2955.13; 838.06639; 1160001.3150234
2956.15; 833.07393; 1160849.3483316
2957.16; 831.77099; 1161696.0553086
2958.18; 837.0616; 1162548.1479002
2959.20; 850.8797; 1163414.30672
2960.22; 874.06968; 1164304.0719338
2961.24; 906.49204; 1165226.8417128
2962.25; 947.3083; 1166191.1606848
2963.27; 995.35299; 1167204.3870805
2964.29; 1049.4732; 1168272.7054968
2965.31; 1108.7194; 1169401.3339996
2966.33; 1172.3136; 1170594.6986629
2967.34; 1239.3964; 1171856.350733
2968.36; 1308.6479; 1173188.4978432
2969.38; 1377.9546; 1174591.1961233
2970.40; 1444.3228; 1176061.4544301
2971.42; 1504.195; 1177592.6600735
2972.43; 1554.2023; 1179174.7709711
2973.45; 1592.2233; 1180795.5856006
2974.47; 1618.4607; 1182443.108754
2975.49; 1636.1629; 1184108.6519854
2976.51; 1651.6551; 1185789.9656458
2977.52; 1673.5107; 1187493.5272769
2978.54; 1710.9513; 1189235.2018235
2979.56; 1771.8352; 1191038.8535718
2980.58; 1860.7736; 1192933.0408289
2981.60; 1977.9382; 1194946.4966038
2982.61; 2118.9538; 1197103.500162
2983.63; 2275.9556; 1199420.3247951
2984.65; 2439.5246; 1201903.6555998
2985.67; 2600.9224; 1204551.2823698
2986.69; 2753.9348; 1207354.6691566
2987.70; 2895.7473; 1210302.4149923
2988.72; 3026.5882; 1213383.3512157
2989.74; 3148.2858; 1216588.1702819
2990.76; 3262.2603; 1219909.0105276
2991.78; 3367.6801; 1223337.1635418
2992.79; 3460.4798; 1226859.7827
2993.81; 3533.6781; 1230456.9145121
2994.83; 3579.0103; 1234100.1925173
2995.85; 3589.4557; 1237754.1035781
2996.86; 3561.9125; 1241379.9768002
2997.88; 3499.1685; 1244941.9793685
2998.90; 3410.4721; 1248413.6928155
2999.92; 3310.3731; 1251783.5097556
3000.94; 3215.9939; 1255057.2528075
3001.95; 3143.3552; 1258257.0527151
3002.97; 3103.6887; 1261416.4738452
3003.99; 3100.7353; 1264572.8885468
3005.01; 3129.8046; 1267758.8945501
3006.03; 3178.9292; 1270994.9072486
3007.04; 3231.8818; 1274284.8234991
3008.06; 3272.3009; 1277615.8845915
3009.08; 3287.8345; 1280962.7581963
3010.10; 3273.1822; 1284294.7163996
3011.12; 3231.2005; 1287583.9390563
3012.13; 3171.781; 1290812.6752617
3013.15; 3108.85; 1293977.3504019
3014.17; 3056.3813; 1297088.6146612
3015.19; 3024.5919; 1300167.5187132
3016.21; 3017.4065; 1303239.1083075
3017.22; 3031.8603; 1306325.4113067
3018.24; 3059.4972; 1309439.8474773
3019.26; 3089.2103; 1312584.5302159
3020.28; 3110.5757; 1315750.9620595
3021.30; 3116.6633; 1318923.5907989
3022.31; 3105.5751; 1322084.932194
3023.33; 3080.4536; 1325220.7010658
3024.35; 3048.2158; 1328323.653253
3025.37; 3017.6231; 1331395.463303
3026.39; 2997.3824; 1334446.6692724
3027.40; 2994.7872; 1337495.2334409
3028.42; 3015.0628; 1340564.4372257
3029.44; 3061.2529; 1343680.660622
3030.46; 3134.3069; 1346871.2497519
3031.48; 3233.0665; 1350162.371886
3032.49; 3354.0699; 1353576.6703429
3033.51; 3491.3436; 1357130.7074867
3034.53; 3636.5127; 1360832.5205261
3035.55; 3779.5265; 1364679.9154259
3036.57; 3910.069; 1368660.196989
3037.58; 4019.4151; 1372751.788112
3038.60; 4102.2385; 1376927.6898755
3039.62; 4157.8157; 1381160.1668183
3040.64; 4190.2326; 1385425.6427423
3041.66; 4207.5356; 1389708.7324284
3042.67; 4220.1285; 1394004.6411387
3043.69; 4238.9475; 1398319.7068169
3044.71; 4273.9573; 1402670.4109208
3045.73; 4333.2967; 1407081.5199648
3046.74; 4423.0804; 1411584.0249724
3047.76; 4547.5759; 1416213.2609532
3048.78; 4709.3606; 1421007.1867943
3049.80; 4909.1671; 1426004.5070191
3050.82; 5145.3765; 1431242.278314
3051.83; 5413.3987; 1436752.8846006
3052.85; 5705.3229; 1442560.6571533
3053.87; 6010.1704; 1448678.7513104
3054.89; 6314.838; 1455106.9839172
3055.91; 6605.5235; 1461831.1218275
3056.92; 6869.2145; 1468823.6857947
3057.94; 7094.8193; 1476045.9056931
3058.96; 7273.7341; 1483450.2531019
3059.98; 7399.9675; 1490983.1007084
3061.00; 7470.2102; 1498587.452342
3062.01; 7484.2807; 1506206.1271082
3063.03; 7446.1407; 1513785.977043
3064.05; 7365.2286; 1521283.4619086
3065.07; 7257.4108; 1528671.1929775
3066.09; 7144.6411; 1535944.1293411
3067.10; 7052.6051; 1543123.3770438
3068.12; 7006.2377; 1550255.4246885
3069.14; 7023.8397; 1557405.3904248
3070.16; 7111.292; 1564644.3788294
3071.18; 7258.2268; 1572032.9404846
3072.19; 7437.7631; 1579604.262376
3073.21; 7610.5409; 1587351.4646429
3074.23; 7732.5336; 1595222.8501438
3075.25; 7764.8843; 1603127.1673137
3076.27; 7683.2248; 1610948.3585799
3077.28; 7483.8895; 1618566.6351358
3078.30; 7185.2024; 1625880.8611462
3079.32; 6823.3593; 1632826.7464726
3080.34; 6443.9547; 1639386.4142723
3081.36; 6091.4234; 1645587.2204879
3082.37; 5799.2083; 1651490.5643325
3083.39; 5583.1737; 1657173.9942751
3084.41; 5439.7767; 1662711.4522165
3085.43; 5349.1165; 1668156.6219721
3086.45; 5281.6519; 1673533.1157014
3087.46; 5206.4945; 1678833.1024274
3088.48; 5098.9795; 1684023.6435084
3089.50; 4945.6827; 1689058.1350732
3090.52; 4745.9798; 1693889.3376661
3091.53; 4510.3048; 1698480.6333155
3092.55; 4256.126; 1702813.1859174
3093.57; 4003.0866; 1706888.155322
3094.59; 3768.6977; 1710724.5269743
3095.61; 3565.5157; 1714354.0680956
3096.62; 3400.1001; 1717815.2232817
3097.64; 3273.4677; 1721147.4721216
3098.66; 3182.4077; 1724387.0258026
3099.68; 3120.977; 1727564.0456858
3100.70; 3081.699; 1730701.0822465
3101.71; 3056.3174; 1733812.2814861
3102.73; 3036.251; 1736903.0539808
3103.75; 3013.0367; 1739970.1953024
3104.77; 2979.0022; 1743002.6909461
3105.79; 2928.2125; 1745983.484928
3106.80; 2857.4988; 1748892.2954492
3107.82; 2767.2131; 1751709.1989839
3108.84; 2661.346; 1754418.3343889
3109.86; 2546.8072; 1757010.8741797
3110.88; 2431.9412; 1759486.4853383
3111.89; 2324.635; 1761852.8634601
3112.91; 2230.5469; 1764123.4639937
3113.93; 2151.9824; 1766314.0892239
3114.95; 2087.7499; 1768439.3285364
3115.97; 2034.0134; 1770509.8664489
3116.98; 1985.8302; 1772531.3559471
3118.00; 1938.8411; 1774505.0125315
3119.02; 1890.5473; 1776429.508079
3120.04; 1840.7743; 1778303.3368832
3121.06; 1791.2288; 1780126.7305456
3122.07; 1744.3865; 1781902.4406917
3123.09; 1702.1846; 1783635.1911962
3124.11; 1665.0489; 1785330.139157
3125.13; 1631.6341; 1786991.0722179
3126.15; 1599.3712; 1788619.1631234
3127.16; 1565.5915; 1790212.867699
3128.18; 1528.7628; 1791769.0822104
3129.20; 1489.327; 1793285.1528404
3130.22; 1449.7712; 1794760.9573139
3131.24; 1413.8577; 1796200.2034661
3132.25; 1385.2677; 1797610.3462479
3133.27; 1366.1439; 1799001.0217394
3134.29; 1356.0782; 1800381.4508301
3135.31; 1351.9424; 1801757.6698455
3136.33; 1348.6606; 1803130.5481809
3137.34; 1340.6895; 1804495.3121897
3138.36; 1323.7121; 1805842.7939416
3139.38; 1295.975; 1807162.0405712
3140.40; 1258.8155; 1808443.4604629
3141.41; 1216.206; 1809681.5056484
3142.43; 1173.4748; 1810876.0523997
3143.45; 1135.6365; 1812032.0813965
3144.47; 1105.8794; 1813157.8188564
3145.49; 1084.6926; 1814261.9890996
3146.50; 1069.887; 1815351.0878882
3147.52; 1057.4635; 1816427.5401206
3148.54; 1043.0162; 1817489.2855651
3149.56; 1023.2014; 1818530.8604858
3150.58; 996.81174; 1819545.571819
3151.59; 965.13865; 1820528.0413162
3152.61; 931.54887; 1821476.31787
3153.63; 900.43688; 1822392.9237605
3154.65; 875.89407; 1823284.5461256
3155.67; 860.49542; 1824160.4933322
3156.68; 854.54625; 1825030.384537
3157.70; 855.98061; 1825901.7358612
3158.72; 860.91119; 1826778.1063061
3159.74; 864.6531; 1827658.2858512
3160.76; 862.92731; 1828536.7086129
3161.77; 852.91816; 1829404.9424978
3162.79; 833.9148; 1830253.8317762
3163.81; 807.38843; 1831075.7183539
3164.83; 776.51191; 1831866.1739667
3165.85; 745.27382; 1832624.8305558
3166.86; 717.43996; 1833355.1534786
3167.88; 695.64506; 1834063.2901322
3168.90; 680.8501; 1834756.3661564
3169.92; 672.2894; 1835440.7277538
3170.94; 667.8883; 1836120.6092236
3171.95; 664.99872; 1836797.5492272
3172.97; 661.21499; 1837470.6375498
3173.99; 655.02208; 1838137.4217645
3175.01; 646.09454; 1838795.118125
3176.03; 635.18434; 1839441.7083734
3177.04; 623.67099; 1840076.5785319
3178.06; 612.95131; 1840700.5365177
3179.08; 603.88733; 1841315.2677616
3180.10; 596.49659; 1841922.4755515
3181.12; 589.97455; 1842523.0441799
3182.13; 583.01903; 1843116.5323894
3183.15; 574.32408; 1843701.1695161
3184.17; 563.05944; 1844274.3397329
3185.19; 549.16754; 1844833.3685941
3186.20; 533.38246; 1845376.3289268
3187.22; 516.97688; 1845902.5890812
3188.24; 501.33573; 1846412.9272168
3189.26; 487.5089; 1846909.190242
3190.28; 475.89335; 1847393.6291378
3191.29; 466.14273; 1847868.1423197
3192.31; 457.32162; 1848333.6759949
3193.33; 448.24066; 1848789.9656477
3194.35; 437.85523; 1849235.6833778
3195.37; 425.59894; 1849668.9247348
3196.38; 411.55359; 1850087.8685312
3197.40; 396.41554; 1850491.4024486
3198.42; 381.28385; 1850879.532959
3199.44; 367.3463; 1851253.4756391
3200.46; 355.56211; 1851615.4225269
3201.47; 346.43092; 1851968.0742502
3202.49; 339.90272; 1852314.0805562
3203.51; 335.43766; 1852655.5416227
3204.53; 332.18117; 1852993.6877183
3205.55; 329.19331; 1853328.7923021
3206.56; 325.66503; 1853660.3052465
3207.58; 321.06809; 1853987.1387063
3208.60; 315.21213; 1854308.0110478
3209.62; 308.21142; 1854621.756972
3210.64; 300.38713; 1854927.538105
3211.65; 292.14193; 1855224.9259854
3212.67; 283.843; 1855513.8659098
3213.69; 275.73896; 1855794.5562706
3214.71; 267.92279; 1856067.2901094
3215.73; 260.34003; 1856332.305024
3216.74; 252.83353; 1856589.6786446
3217.76; 245.21219; 1856839.294071
3218.78; 237.32976; 1857080.885529
3219.80; 229.15901; 1857314.1595171
3220.82; 220.84533; 1857538.970531
3221.83; 212.72364; 1857755.5140174
3222.85; 205.28571; 1857964.4860096
3223.87; 199.09357; 1858167.1546767
3224.89; 194.64942; 1858365.2993853
3225.91; 192.2485; 1858561.0000631
3226.92; 191.85467; 1858756.2998423
3227.94; 193.04058; 1858952.8068183
3228.96; 195.02318; 1859151.3320008
3229.98; 196.80096; 1859351.6668807
3231.00; 197.36771; 1859552.578694
3232.01; 195.95066; 1859752.0480091
3233.03; 192.20632; 1859947.7057527
3234.05; 186.31452; 1860137.3658992
3235.07; 178.93714; 1860319.5161815
3236.08; 171.04747; 1860493.6351231
3237.10; 163.67536; 1860660.24958
3238.12; 157.63943; 1860820.7197127
3239.14; 153.34232; 1860976.8155815
3240.16; 150.68598; 1861130.2074061
3241.17; 149.12709; 1861282.0123502
3242.19; 147.85174; 1861432.5190461
3243.21; 146.01416; 1861581.1551592
3244.23; 142.96925; 1861726.69169
3245.25; 138.43524; 1861867.6127921
3246.26; 132.54744; 1862002.5403699
3247.28; 125.79862; 1862130.5979412
3248.30; 118.89322; 1862251.6261137
3249.32; 112.56337; 1862366.2107649
3250.34; 107.39879; 1862475.5380988
3251.35; 103.73178; 1862581.1325697
3252.37; 101.59731; 1862684.5542438
3253.39; 100.76573; 1862787.129408
3254.41; 100.82719; 1862889.7671325
3255.43; 101.29828; 1862992.8844086
3256.44; 101.72233; 1863096.4333549
3257.46; 101.7429; 1863200.0032393
3258.48; 101.14154; 1863302.9609603
3259.50; 99.841523; 1863404.5953221
3260.52; 97.886311; 1863504.2393632
3261.53; 95.404228; 1863601.3567507
3262.55; 92.570126; 1863695.5891447
3263.57; 89.571761; 1863786.7693317
3264.59; 86.585084; 1863874.9092108
3265.61; 83.759529; 1863960.1727975
3266.62; 81.212012; 1864042.8431207
3267.64; 79.026884; 1864123.2890781
3268.66; 77.258418; 1864201.9348133
3269.68; 75.932572; 1864279.2308946
3270.70; 75.045981; 1864355.6244645
3271.71; 74.562095; 1864431.5254596
3272.73; 74.406697; 1864507.268266
3273.75; 74.466716; 1864583.0721693
3274.77; 74.596437; 1864659.0081235
3275.79; 74.633321; 1864734.9816234
3276.80; 74.422099; 1864810.740109
3277.82; 73.841847; 1864885.9079227
3278.84; 72.828041; 1864960.0437258
3279.86; 71.381856; 1865032.7073745
3280.87; 69.562443; 1865103.5189402
3281.89; 67.463911; 1865172.1942904
3282.91; 65.184781; 1865238.549585
3283.93; 62.801393; 1865302.4786934
3284.95; 60.355936; 1865363.918432
3285.96; 57.864432; 1865422.8219273
3286.98; 55.341739; 1865479.1574297
3288.00; 52.832752; 1865532.9388914
3289.02; 50.434911; 1865584.2794548
3290.04; 48.298967; 1865633.4457191
3291.05; 46.602592; 1865680.885147
3292.07; 45.502197; 1865727.2044202
3293.09; 45.078039; 1865773.0919186
3294.11; 45.292389; 1865819.1976161
3295.13; 45.977864; 1865866.0010977
3296.14; 46.86363; 1865913.7062512
3297.16; 47.63432; 1865962.1959335
3298.18; 48.004928; 1866011.0628788
3299.20; 47.789061; 1866059.7100809
3300.22; 46.939919; 1866107.4928929
3301.23; 45.552574; 1866153.8634479
3302.25; 43.829003; 1866198.4794816
3303.27; 42.019145; 1866241.2531581
3304.29; 40.357842; 1866282.3357
3305.31; 39.016739; 1866322.0530565
3306.32; 38.082953; 1866360.8198598
3307.34; 37.565676; 1866399.0600971
3308.36; 37.422052; 1866437.1541316
3309.38; 37.588297; 1866475.4173958
3310.40; 38.002556; 1866514.1023576
3311.41; 38.611742; 1866553.4074446
3312.43; 39.362711; 1866593.4769857
3313.45; 40.185289; 1866634.3838755
3314.47; 40.978087; 1866676.0977999
3315.49; 41.606706; 1866718.4516311
3316.50; 41.918642; 1866761.1229993
3317.52; 41.772333; 1866803.6454321
3318.54; 41.071933; 1866845.4548876
3319.56; 39.796723; 1866885.9662346
3320.58; 38.015385; 1866924.6642559
3321.59; 35.879862; 1866961.1884073
3322.61; 33.599657; 1866995.3914084
3323.63; 31.402927; 1867027.3582335
3324.65; 29.494096; 1867057.3819509
3325.67; 28.01804; 1867085.9031069
3326.68; 27.038531; 1867113.4271647
3327.70; 26.534501; 1867140.4381413
3328.72; 26.413212; 1867167.3256517
3329.74; 26.535769; 1867194.3379196
3330.75; 26.748332; 1867221.5665673
3331.77; 26.912141; 1867248.9619654
3332.79; 26.92663; 1867276.3721132
3333.81; 26.742071; 1867303.5943872
3334.83; 26.360612; 1867330.4283529
3335.84; 25.826895; 1867356.719018
3336.86; 25.21117; 1867382.3829013
3337.88; 24.588983; 1867407.4134254
3338.90; 24.021866; 1867431.8666489
3339.92; 23.543044; 1867455.8324515
3340.93; 23.151052; 1867479.3992237
3341.95; 22.812421; 1867502.6212836
3342.97; 22.472509; 1867525.4973279
3343.99; 22.071661; 1867547.9653261
3345.01; 21.562482; 1867569.9150025
3346.02; 20.923729; 1867591.2144555
3347.04; 20.167152; 1867611.7437456
3348.06; 19.33557; 1867631.4265219
3349.08; 18.492869; 1867650.2514649
3350.10; 17.708875; 1867668.2783354
3351.11; 17.043428; 1867685.6278096
3352.13; 16.534001; 1867702.4587089
3353.15; 16.189928; 1867718.9393569
3354.17; 15.994155; 1867735.2207161
3355.19; 15.911125; 1867751.4175546
3356.20; 15.897783; 1867767.6008112
3357.22; 15.914148; 1867783.8007267
3358.24; 15.930622; 1867800.0174126
3359.26; 15.930707; 1867816.2341852
3360.28; 15.909506; 1867832.4293755
3361.29; 15.86963; 1867848.5839737
3362.31; 15.81653; 1867864.6845192
3363.33; 15.754835; 1867880.7222611
3364.35; 15.686348; 1867896.690286
3365.37; 15.609493; 1867912.5800767
3366.38; 15.519498; 1867928.3782562
3367.40; 15.408723; 1867944.0636708
3368.42; 15.26705; 1867959.6048684
3369.44; 15.08273; 1867974.9584367
3370.46; 14.844231; 1867990.0692234
3371.47; 14.543258; 1868004.8736326
3372.49; 14.178386; 1868019.3066178
3373.51; 13.758025; 1868033.3116936
3374.53; 13.301204; 1868046.8517454
3375.54; 12.835131; 1868059.9173552
3376.56; 12.389608; 1868072.5294414
3377.58; 11.989711; 1868084.7344498
3378.60; 11.64915; 1868096.5927817
3379.62; 11.366814; 1868108.1637079
3380.63; 11.128133; 1868119.4916671
3381.65; 10.911183; 1868130.5987801
3382.67; 10.695646; 1868141.4864866
3383.69; 10.471476; 1868152.1459975
3384.71; 10.243973; 1868162.5739203
3385.72; 10.033128; 1868172.7872116
3386.74; 9.8670657; 1868182.8314588
3387.76; 9.7716173; 1868192.7785435
3388.78; 9.7595368; 1868202.7133309
3389.80; 9.8231782; 1868212.7129024
3390.81; 9.9333586; 1868222.8246328
3391.83; 10.045092; 1868233.0501026
3392.85; 10.108583; 1868243.3402042
3393.87; 10.082163; 1868253.6034116
3394.89; 9.9432452; 1868263.7252062
3395.90; 9.6941218; 1868273.5934038
3396.92; 9.3611077; 1868283.1226075
3397.94; 8.9875917; 1868292.271588
3398.96; 8.623295; 1868301.0497302
3399.98; 8.3129064; 1868309.5119102
3400.99; 8.0871115; 1868317.7442407
3402.01; 7.9580216; 1868325.8451633
3403.03; 7.9195608; 1868333.9069344
3404.05; 7.9519719; 1868342.0016987
3405.07; 8.028653; 1868350.174521
3406.08; 8.1232129; 1868358.4436012
3407.10; 8.2149194; 1868366.8060346
3408.12; 8.2914188; 1868375.2463412
3409.14; 8.3484842; 1868383.7447379
3410.16; 8.3873619; 1868392.2827103
3411.17; 8.4108687; 1868400.8446117
3412.19; 8.419631; 1868409.4154328
3413.21; 8.4097306; 1868417.9761757
3414.23; 8.3725626; 1868426.4990831
3415.25; 8.2970221; 1868434.9450936
3416.26; 8.1733849; 1868443.2652467
3417.28; 7.9976491; 1868451.4065084
3418.30; 7.7748556; 1868459.3209759
3419.32; 7.5201198; 1868466.9761334
3420.34; 7.2567742; 1868474.3632164
3421.35; 7.0119351; 1868481.5010637
3422.37; 6.8106874; 1868488.4340496
3423.39; 6.6705937; 1868495.2244262
3424.41; 6.5981858; 1868501.9410946
3425.42; 6.5884624; 1868508.6478651
3426.44; 6.6274234; 1868515.3942962
3427.46; 6.6966565; 1868522.2112035
3428.48; 6.7783427; 1868529.1112638
3429.50; 6.8589975; 1868536.0934273
3430.51; 6.9308244; 1868543.1487075
3431.53; 6.9905176; 1868550.2647527
3432.55; 7.0363289; 1868557.4274319
3433.57; 7.0648561; 1868564.6191506
3434.59; 7.0690698; 1868571.8151586
3435.60; 7.0385768; 1868578.980126
3436.62; 6.9622244; 1868586.06737
3437.64; 6.8322201; 1868593.0222753
3438.66; 6.6483177; 1868599.7899758
3439.68; 6.4205109; 1868606.3257788
3440.69; 6.1691113; 1868612.6056679
3441.71; 5.9218973; 1868618.6339038
3442.73; 5.7089351; 1868624.4453534
3443.75; 5.5563951; 1868630.1015238
3444.77; 5.4810027; 1868635.6809481
3445.78; 5.4865969; 1868641.2660669
3446.80; 5.5636909; 1868646.9296641
3447.82; 5.692115; 1868652.7239916
3448.84; 5.8460083; 1868658.6749758
3449.86; 5.999829; 1868664.7825428
3450.87; 6.1338265; 1868671.0265135
3451.89; 6.237602; 1868677.3761232
3452.91; 6.3109301; 1868683.8003777
3453.93; 6.3617587; 1868690.2763735
3454.95; 6.4020651; 1868696.7933996
3455.96; 6.4428075; 1868703.3518996
3456.98; 6.4894381; 1868709.9578675
3458.00; 6.5392808; 1868716.6145731
3459.02; 6.581554; 1868723.3143111
3460.04; 6.6000939; 1868730.0329219
3461.05; 6.5780777; 1868736.7291211
3462.07; 6.5034653; 1868743.3493682
3463.09; 6.3736219; 1868749.8374403
3464.11; 6.1977226; 1868756.1464545
3465.13; 5.9960657; 1868762.2501906
3466.14; 5.7962062; 1868768.1504784
3467.16; 5.6266963; 1868773.8782124
3468.18; 5.5099517; 1868779.4871054
3469.20; 5.4561519; 1868785.0412327
3470.21; 5.4599704; 1868790.5992469
3471.23; 5.5012953; 1868796.1993281
3472.25; 5.5500583; 1868801.849048
3473.27; 5.5740908; 1868807.5232319
3474.29; 5.5479339; 1868813.1707892
3475.30; 5.4600746; 1868818.7289096
3476.32; 5.3163776; 1868824.1407526
3477.34; 5.1385178; 1868829.3715419
3478.36; 4.957728; 1868834.4182951
3479.38; 4.8056845; 1868839.3102746
3480.39; 4.7053484; 1868844.1001162
3481.41; 4.6646809; 1868848.8485601
3482.43; 4.6752581; 1868853.6077711
3483.45; 4.716187; 1868858.4086459
3484.47; 4.7619169; 1868863.2560718
3485.48; 4.7911866; 1868868.133293
3486.50; 4.793953; 1868873.0133303
3487.52; 4.7738866; 1868877.8729409
3488.54; 4.745629; 1868882.7037864
3489.56; 4.7279261; 1868887.5166112
3490.57; 4.7352585; 1868892.3369
3491.59; 4.7711299; 1868897.1937043
3492.61; 4.825551; 1868902.105907
3493.63; 4.877693; 1868907.071188
3494.65; 4.9027762; 1868912.0620027
3495.66; 4.8807062; 1868917.030351
3496.68; 4.8033451; 1868921.919949
3497.70; 4.6778148; 1868926.6817626
3498.72; 4.5246664; 1868931.2876778
3499.74; 4.3715676; 1868935.737745
3500.75; 4.2446994; 1868940.0586658
3501.77; 4.1607743; 1868944.2941545
3502.79; 4.1222828; 1868948.4904604
3503.81; 4.1173951; 1868952.681791
3504.83; 4.1243594; 1868956.8802109
3505.84; 4.1187997; 1868961.0729713
3506.86; 4.0815091; 1868965.2277714
3507.88; 4.0043575; 1868969.3040346
3508.90; 3.8927064; 1868973.2666417
3509.92; 3.7639103; 1868977.09814
3510.93; 3.6426634; 1868980.8062141
3511.95; 3.554744; 1868984.4247901
3512.97; 3.5209484; 1868988.0089636
3513.99; 3.552688; 1868991.6254466
3515.00; 3.6500662; 1868995.3410565
3516.02; 3.8025005; 1868999.2118379
3517.04; 3.9913545; 1869003.2748646
3518.06; 4.1937194; 1869007.5438899
3519.08; 4.3864475; 1869012.0091042
3520.09; 4.5497086; 1869016.6405112
3521.11; 4.6695941; 1869021.3939566
3522.13; 4.7395415; 1869026.2186053
3523.15; 4.7605412; 1869031.0646308
3524.17; 4.740219; 1869035.8899692
3525.18; 4.6909918; 1869040.6651965
3526.20; 4.6275873; 1869045.3758807
3527.22; 4.5643115; 1869050.0221528
3528.24; 4.5125024; 1869054.6156856
3529.26; 4.478609; 1869059.1747163
3530.27; 4.463245; 1869063.7181071
3531.29; 4.4614017; 1869068.2596216
3532.31; 4.463789; 1869072.8035661
3533.33; 4.4590506; 1869077.3426872
3534.35; 4.4364295; 1869081.8587809
3535.36; 4.3883577; 1869086.3259397
3536.38; 4.3124466; 1869090.7158242
3537.40; 4.2124523; 1869095.0039189
3538.42; 4.0979711; 1869099.1754767
3539.44; 3.9828668; 1869103.2298632
3540.45; 3.8826983; 1869107.1822825
3541.47; 3.8116538; 1869111.0623816
3542.49; 3.7796462; 1869114.9098984
3543.51; 3.7902229; 1869118.7681817
3544.53; 3.8397802; 1869122.6769123
3545.54; 3.9182612; 1869126.6655331
3546.56; 4.0111412; 1869130.7487018
3547.58; 4.1021837; 1869134.9245478
3548.60; 4.1762795; 1869139.1758202
3549.62; 4.2217294; 1869143.4733586
3550.63; 4.2315728; 1869147.7809171
3551.65; 4.2039049; 1869152.0603109
3552.67; 4.1414266; 1869156.2761045
3553.69; 4.0506137; 1869160.3994544
3554.71; 3.940835; 1869164.4110544
3555.72; 3.8235308; 1869168.3032437
3556.74; 3.7113229; 1869172.0812103
3557.76; 3.616801; 1869175.7629576
3558.78; 3.5508075; 1869179.3775264
3559.80; 3.5203227; 1869182.961063
3560.81; 3.5264; 1869186.5507859
3561.83; 3.5628531; 1869190.1776167
3562.85; 3.6163913; 1869193.858947
3563.87; 3.6685761; 1869197.5933991
3564.88; 3.6994233; 1869201.3592524
3565.90; 3.6918809; 1869205.1174278
3566.92; 3.6360154; 1869208.8187345
3567.94; 3.5317069; 1869212.4138598
3568.96; 3.3890294; 1869215.8637454
3569.97; 3.2261561; 1869219.1478332
3570.99; 3.0653611; 1869222.2682385
3572.01; 2.9282233; 1869225.2490435
3573.03; 2.8313168; 1869228.1312019
3574.05; 2.7834359; 1869230.9646195
3575.06; 2.7848715; 1869233.7994985
3576.08; 2.8286292; 1869236.678921
3577.10; 2.9029644; 1869239.6340135
3578.12; 2.9943672; 1869242.68215
3579.14; 3.0901839; 1869245.8278239
3580.15; 3.180348; 1869249.0652809
3581.17; 3.2580701; 1869252.3818557
3582.19; 3.3196656; 1869255.761132
3583.21; 3.3638836; 1869259.1854204
3584.23; 3.3911217; 1869262.637436
3585.24; 3.4028047; 1869266.1013443
3586.26; 3.4010436; 1869269.5634599
3587.28; 3.3885444; 1869273.0128518
3588.30; 3.3686419; 1869276.4419839
3589.32; 3.3453139; 1869279.8473691
3590.33; 3.3230612; 1869283.230102
3591.35; 3.3066009; 1869286.5960791
3592.37; 3.3003872; 1869289.9557308
3593.39; 3.3080309; 1869293.3231635
3594.41; 3.3317202; 1869296.7147109
3595.42; 3.3717555; 1869300.1470125
3596.44; 3.4262902; 1869303.6348281
3597.46; 3.4913369; 1869307.1888584
3598.48; 3.5610542; 1869310.8138579
3599.50; 3.6282925; 1869314.5073031
3600.51; 3.6853512; 1869318.2588316
3601.53; 3.7248879; 1869322.0506068
3602.55; 3.740909; 1869325.8586907
3603.57; 3.7297542; 1869329.6554195
3604.59; 3.6909527; 1869333.4126501
3605.60; 3.6277943; 1869337.1055881
3606.62; 3.547438; 1869340.716727
3607.64; 3.460409; 1869344.2392741
3608.66; 3.3794183; 1869347.6793761
3609.67; 3.3175894; 1869351.0565389
3610.69; 3.2863388; 1869354.40189
3611.71; 3.2932992; 1869357.7543264
3612.73; 3.3407298; 1869361.1550452
3613.75; 3.4248091; 1869364.6413531
3614.76; 3.5360416; 1869368.2408908
3615.78; 3.6607832; 1869371.9674102
3616.80; 3.7836393; 1869375.8189918
3617.82; 3.8902921; 1869379.7791412
3618.84; 3.9701994; 1869383.8206329
3619.85; 4.0186072; 1869387.9114016
3620.87; 4.0374258; 1869392.0213269
3621.89; 4.0347363; 1869396.1285143
3622.91; 4.0229654; 1869400.2237195
3623.93; 4.0160833; 1869404.311919
3624.94; 4.0264425; 1869408.4106637
3625.96; 4.0620422; 1869412.5456474
3626.98; 4.1249677; 1869416.7446866
3628.00; 4.2115079; 1869421.0318199
3629.02; 4.3139965; 1869425.4232822
3630.03; 4.4238807; 1869429.9266018
3631.05; 4.5350584; 1869434.5430955
3632.07; 4.6463251; 1869439.2728539
3633.09; 4.761957; 1869444.1203207
3634.11; 4.8900261; 1869449.0981562
3635.12; 5.0388327; 1869454.2274705
3636.14; 5.2125884; 1869459.5336605
3637.16; 5.4078964; 1869465.0386657
3638.18; 5.6124533; 1869470.7519009
3639.20; 5.8067334; 1869476.6629049
3640.21; 5.9684101; 1869482.7384888
3641.23; 6.0782724; 1869488.9259078
3642.25; 6.1257823; 1869495.1616899
3643.27; 6.1124441; 1869501.3838943
3644.29; 6.0518359; 1869507.544402
3645.30; 5.9662551; 1869513.6177923
3646.32; 5.8810562; 1869519.6044537
3647.34; 5.8184904; 1869525.5274259
3648.36; 5.7929396; 1869531.4243884
3649.38; 5.8088437; 1869537.3375406
3650.39; 5.8616124; 1869543.3044091
3651.41; 5.9407761; 1869549.3518629
3652.43; 6.0339661; 1869555.49418
3653.45; 6.1302436; 1869561.7345034
3654.47; 6.2218009; 1869568.0680283
3655.48; 6.3038768; 1869574.4851028
3656.50; 6.3735065; 1869580.9730574
3657.52; 6.4281311; 1869587.5166174
3658.54; 6.4649884; 1869594.0976966
3659.55; 6.4816751; 1869600.6957622
3660.57; 6.4775835; 1869607.2896626
3661.59; 6.4553956; 1869613.8609767
3662.61; 6.4216985; 1869620.3979887
3663.63; 6.3861234; 1869626.8987868
3664.64; 6.3590424; 1869633.3720175
3665.66; 6.3485096; 1869639.8345264
3666.68; 6.3575139; 1869646.3062012
3667.70; 6.3825572; 1869652.803369
3668.72; 6.4141122; 1869659.3326585
3669.73; 6.4388407; 1869665.8871205
3670.75; 6.4428365; 1869672.4456501
3671.77; 6.4148484; 1869678.9756889
3672.79; 6.3485222; 1869685.4382106
3673.81; 6.243127; 1869691.7934445
3674.82; 6.1027937; 1869698.0058251
3675.84; 5.9347642; 1869704.047159
3676.86; 5.7473684; 1869709.897732
3677.88; 5.5483547; 1869715.5457177
3678.90; 5.3439086; 1869720.9855861
3679.91; 5.13835; 1869726.2162047
3680.93; 4.9342725; 1869731.2390812
3681.95; 4.7328502; 1869736.0569185
3682.97; 4.5341581; 1869740.6724957
3683.99; 4.3375328; 1869745.0879169
3685.00; 4.1421031; 1869749.3043991
3686.02; 3.9475724; 1869753.3228575
3687.04; 3.7551635; 1869757.1454518
3688.06; 3.5684198; 1869760.7779492
3689.08; 3.3934482; 1869764.2323331
3690.09; 3.2382665; 1869767.5287486
3691.11; 3.1112018; 1869770.6958177
3692.13; 3.0186722; 1869773.7686958
3693.15; 2.9630146; 1869776.7849168
3694.17; 2.9411412; 1869779.7788717
3695.18; 2.9446284; 1869782.7763763
3696.20; 2.9614037; 1869785.7909575
3697.22; 2.9786405; 1869788.823085
3698.24; 2.986006; 1869791.8627102
3699.26; 2.9782164; 1869794.8944061
3700.27; 2.9560248; 1869797.9035118
3701.29; 2.9252608; 1869800.881301
3702.31; 2.8941922; 1869803.8274637
3703.33; 2.8700599; 1869806.7490609
3704.34; 2.855944; 1869809.6562886
3705.36; 2.8490361; 1869812.5564844
3706.38; 2.8409452; 1869815.448444
3707.40; 2.8199947; 1869818.3190769
3708.42; 2.7748098; 1869821.1437135
3709.43; 2.698064; 1869823.8902263
3710.45; 2.5891909; 1869826.5259109
3711.47; 2.4552002; 1869829.0251988
3712.49; 2.3093401; 1869831.3760073
3713.51; 2.1680258; 1869833.582964
3714.52; 2.0469777; 1869835.666699
3715.54; 1.9577203; 1869837.6595737
3716.56; 1.9054191; 1869839.5992082
3717.58; 1.8885595; 1869841.5216802
3718.60; 1.9003597; 1869843.4561644
3719.61; 1.9312818; 1869845.4221259
3720.63; 1.9717254; 1869847.4292574
3721.65; 2.014044; 1869849.4794672
3722.67; 2.0533736; 1869851.5697129
3723.69; 2.0872551; 1869853.6944486
3724.70; 2.1144846; 1869855.8469026
3725.72; 2.1338662; 1869858.0190864
3726.74; 2.1435009; 1869860.2010778
3727.76; 2.14094; 1869862.3804624
3728.78; 2.1241172; 1869864.5427221
3729.79; 2.0925998; 1869866.6728983
3730.81; 2.0485359; 1869868.7582195
3731.83; 1.9967749; 1869870.7908502
3732.85; 1.9439604; 1869872.769718
3733.87; 1.896817; 1869874.7005958
3734.88; 1.8601932; 1869876.5941922
3735.90; 1.8355576; 1869878.4627107
3736.92; 1.8205135; 1869880.3159148
3737.94; 1.8095513; 1869882.1579599
3738.96; 1.7958264; 1869883.9860337
3739.97; 1.7733917; 1869885.7912698
3740.99; 1.7391628; 1869887.5616625
3742.01; 1.6939918; 1869889.286073
3743.03; 1.6425348; 1869890.9581025
3744.05; 1.5919992; 1869892.578689
3745.06; 1.5502053; 1869894.1567311
3746.08; 1.5235798; 1869895.7076695
3747.10; 1.5156645; 1869897.2505506
3748.12; 1.526505; 1869898.8044668
3749.14; 1.5529741; 1869900.3853274
3750.15; 1.589795; 1869902.0036701
3751.17; 1.630863; 1869903.6638183
3752.19; 1.6704483; 1869905.3642625
3753.21; 1.7039935; 1869907.0988544
3754.22; 1.728417; 1869908.8583083
3755.24; 1.7420178; 1869910.6316072
3756.26; 1.7441857; 1869912.407113
3757.28; 1.7351212; 1869914.1733915
3758.30; 1.7156856; 1869915.9198853
3759.31; 1.6873828; 1869917.6375682
3760.33; 1.6523828; 1869919.3196226
3761.35; 1.6134635; 1869920.9620588
3762.37; 1.5737958; 1869922.564115
3763.39; 1.536575; 1869924.1282821
3764.40; 1.5045948; 1869925.6598946
3765.42; 1.4798921; 1869927.1663609
3766.44; 1.4635768; 1869928.656219
3767.46; 1.4558795; 1869930.1382415
3768.48; 1.4563625; 1869931.6207557
3769.49; 1.4641768; 1869933.1112245
3770.51; 1.4782399; 1869934.616009
3771.53; 1.4972634; 1869936.1401585
3772.55; 1.5196505; 1869937.6870971
3773.57; 1.5433612; 1869939.2581722
3774.58; 1.5658783; 1869940.8521687
3775.60; 1.5843758; 1869942.4649949
3776.62; 1.5961046; 1869944.0897605
3777.64; 1.5989126; 1869945.7173845
3778.66; 1.5917408; 1869947.3377079
3779.67; 1.5749277; 1869948.9409164
3780.69; 1.5502127; 1869950.518966
3781.71; 1.5204237; 1869952.0666918
3782.73; 1.4889432; 1869953.5823717
3783.75; 1.4591045; 1869955.0676771
3784.76; 1.4336762; 1869956.5270976
3785.78; 1.4145388; 1869957.9670371
3786.80; 1.4025754; 1869959.3947984
3787.82; 1.3977314; 1869960.8176286
3788.84; 1.3991635; 1869962.2419167
3789.85; 1.4054131; 1869963.6725666
3790.87; 1.4145771; 1869965.112545
3791.89; 1.4244916; 1869966.562616
3792.91; 1.4329576; 1869968.021305
3793.93; 1.4380156; 1869969.4851428
3794.94; 1.438233; 1869970.9492019
3795.96; 1.432929; 1869972.4078618
3796.98; 1.4222521; 1869973.855653
3798.00; 1.4070621; 1869975.2879815
3799.01; 1.3886357; 1869976.7015527
3800.03; 1.368287; 1869978.0944098
3801.05; 1.3470403; 1869979.4656388
3802.07; 1.325477; 1869980.8149172
3803.09; 1.3038141; 1869982.1421437
3804.10; 1.2821779; 1869983.4473455
3805.12; 1.2609459; 1869984.730934
3806.14; 1.2409948; 1869985.9942131
3807.16; 1.2237203; 1869987.2399075
3808.18; 1.2107813; 1869988.4724306
3809.19; 1.2036338; 1869989.6976779
3810.21; 1.2030142; 1869990.9222944
3811.23; 1.2085625; 1869992.1525589
3812.25; 1.2187402; 1869993.3931839
3813.27; 1.2310933; 1869994.6463838
3814.28; 1.2427928; 1869995.9114932
3815.30; 1.2512854; 1869997.1852478
3816.32; 1.2548495; 1869998.4626304
3817.34; 1.2528925; 1869999.7380209
3818.36; 1.2459202; 1870001.0063139
3819.37; 1.2352259; 1870002.2637205
3820.39; 1.2224412; 1870003.5081129
3821.41; 1.2091258; 1870004.7389509
3822.43; 1.1965354; 1870005.9569723
3823.45; 1.1856245; 1870007.1638869
3824.46; 1.177232; 1870008.3622582
3825.48; 1.1723216; 1870009.555631
3826.50; 1.1721254; 1870010.748804
3827.52; 1.1780802; 1870011.9480388
3828.54; 1.191535; 1870013.16097
3829.55; 1.2133086; 1870014.3960658
3830.57; 1.2432477; 1870015.6616383
3831.59; 1.279955; 1870016.9645773
3832.61; 1.3208094; 1870018.3091042
3833.63; 1.3623118; 1870019.6958788
3834.64; 1.4006857; 1870021.1217164
3835.66; 1.43258; 1870022.5800211
3836.68; 1.4556918; 1870024.0618525
3837.70; 1.4691489; 1870025.5573827
3838.72; 1.4735665; 1870027.0574098
3839.73; 1.4707785; 1870028.5545988
3840.75; 1.4633307; 1870030.0442063
3841.77; 1.4538729; 1870031.5241862
3842.79; 1.4445986; 1870032.9947251
3843.81; 1.436856; 1870034.4573826
3844.82; 1.4310001; 1870035.9140789
3845.84; 1.426494; 1870037.3661883
3846.86; 1.4222137; 1870038.8139405
3847.88; 1.4168672; 1870040.2562501
3848.89; 1.4094253; 1870041.6909843
3849.91; 1.3994659; 1870043.1155802
3850.93; 1.3873582; 1870044.5278509
3851.95; 1.3742559; 1870045.9267841
3852.97; 1.3619094; 1870047.3131491
3853.98; 1.3523454; 1870048.6897784
3855.00; 1.3474862; 1870050.0614613
3856.02; 1.3487861; 1870051.4344673
3857.04; 1.3569513; 1870052.8157852
3858.06; 1.3717867; 1870054.2122049
3859.07; 1.3921901; 1870055.6293943
3860.09; 1.4162921; 1870057.0711186
3861.11; 1.4417253; 1870058.5387327
3862.13; 1.4659906; 1870060.0310479
3863.15; 1.4868741; 1870061.5446216
3864.16; 1.5028438; 1870063.0744517
3865.18; 1.5133433; 1870064.6149699
3866.20; 1.5188927; 1870066.1611371
3867.22; 1.520934; 1870067.7093823
3868.24; 1.5214127; 1870069.2581148
3869.25; 1.5221685; 1870070.8076166
3870.27; 1.5242825; 1870072.3592704
3871.29; 1.5275802; 1870073.9142811
3872.31; 1.5304721; 1870075.4722357
3873.33; 1.5302414; 1870077.0299554
3874.34; 1.5237567; 1870078.581074
3875.36; 1.5084506; 1870080.1166117
3876.38; 1.4833015; 1870081.6265486
3877.40; 1.4495279; 1870083.1021055
3878.42; 1.4107694; 1870084.5382079
3879.43; 1.3726604; 1870085.935517
3880.45; 1.3418715; 1870087.3014843
3881.47; 1.3248325; 1870088.6501066
3882.49; 1.3264318; 1870090.0003569
3883.51; 1.3489803; 1870091.3735606
3884.52; 1.3916499; 1870092.7902002
3885.54; 1.450485; 1870094.2667313
3886.56; 1.5189605; 1870095.8129675
3887.58; 1.588975; 1870097.4304755
3888.60; 1.6521063; 1870099.1122484
3889.61; 1.7009387; 1870100.8437306
3890.63; 1.7302624; 1870102.6050631
3891.65; 1.7379566; 1870104.3742279
3892.67; 1.7253888; 1870106.1305992
3893.68; 1.6972166; 1870107.8582924
3894.70; 1.6605657; 1870109.5486767
3895.72; 1.6236858; 1870111.2015188
3896.74; 1.5943218; 1870112.8244695
3897.76; 1.5781456; 1870114.4309537
3898.77; 1.577626; 1870116.0369089
3899.79; 1.5916395; 1870117.6571292
3900.81; 1.6159556; 1870119.3021022
3901.83; 1.6444934; 1870120.9761255
3902.85; 1.6710233; 1870122.6771551
3903.86; 1.6908464; 1870124.3983637
3904.88; 1.7019777; 1870126.1309036
3905.90; 1.7054986; 1870127.8670276
3906.92; 1.7049893; 1870129.6026331
3907.94; 1.7052281; 1870131.3384817
3908.95; 1.7105643; 1870133.0797624
3909.97; 1.7234613; 1870134.8341716
3910.99; 1.7436435; 1870136.6091255
3912.01; 1.7680882; 1870138.408963
3913.03; 1.791839; 1870140.2329778
3914.04; 1.809376; 1870142.0748444
3915.06; 1.8161267; 1870143.923583
3916.08; 1.8096843; 1870145.7657635
3917.10; 1.7904116; 1870147.5883252
3918.12; 1.7613077; 1870149.3812605
3919.13; 1.7272319; 1870151.139508
3920.15; 1.6937441; 1870152.8636663
3921.17; 1.6658998; 1870154.5594804
3922.19; 1.6473039; 1870156.2363647
3923.21; 1.6396166; 1870157.9054236
3924.22; 1.6425534; 1870159.5774721
3925.24; 1.6542852; 1870161.261463
3926.26; 1.6720579; 1870162.9635458
3927.28; 1.6928366; 1870164.6867803
3928.30; 1.7138247; 1870166.43138
3929.31; 1.732791; 1870168.1952865
3930.33; 1.7482185; 1870169.9748975
3931.35; 1.7593438; 1870171.7658335
3932.37; 1.7661641; 1870173.5637124
3933.39; 1.7694574; 1870175.3649436
3934.40; 1.7708044; 1870177.1675461
3935.42; 1.7725541; 1870178.9719296
3936.44; 1.7776487; 1870180.7814993
3937.46; 1.7892499; 1870182.6028785
3938.48; 1.8101697; 1870184.4455531
3939.49; 1.8421904; 1870186.3208235
3940.51; 1.8854342; 1870188.2401141
3941.53; 1.9379695; 1870190.2128835
3942.55; 1.9958178; 1870192.2445399
3943.56; 2.053432; 1870194.3348451
3944.58; 2.1045973; 1870196.4772343
3945.60; 2.1435795; 1870198.6593057
3946.62; 2.1662653; 1870200.8644703
3947.64; 2.1710229; 1870203.0744779
3948.65; 2.159076; 1870205.2723241
3949.67; 2.1343003; 1870207.4449497
3950.69; 2.1024915; 1870209.5851954
3951.71; 2.0702733; 1870211.6926443
3952.73; 2.043883; 1870213.773229
3953.74; 2.0280801; 1870215.837727
3954.76; 2.0253806; 1870217.8994771
3955.78; 2.0357401; 1870219.9717726
3956.80; 2.0567254; 1870222.0654302
3957.82; 2.0841323; 1870224.186987
3958.83; 2.1129347; 1870226.3378634
3959.85; 2.1383898; 1870228.5146519
3960.87; 2.1570829; 1870230.7104692
3961.89; 2.1676742; 1870232.917068
3962.91; 2.171151; 1870235.1272061
3963.92; 2.1704782; 1870237.3366592
3964.94; 2.1696972; 1870239.5453173
3965.96; 2.1726943; 1870241.7570263
3966.98; 2.1819947; 1870243.9782027
3968.00; 2.1979778; 1870246.2156493
3969.01; 2.2188112; 1870248.4743033
3970.03; 2.2411759; 1870250.7557237
3971.05; 2.2615795; 1870253.057914
3972.07; 2.2778101; 1870255.3766264
3973.09; 2.2899956; 1870257.7077432
3974.10; 2.3008288; 1870260.0498876
3975.12; 2.314807; 1870262.4062612
3976.14; 2.3366941; 1870264.7849149
3977.16; 2.3697267; 1870267.1971944
3978.18; 2.414215; 1870269.6547611
3979.19; 2.4670804; 1870272.1661425
3980.21; 2.5225458; 1870274.7339853
3981.23; 2.5737839; 1870277.3539863
3982.25; 2.6149716; 1870280.0159145
3983.27; 2.6430493; 1870282.7064247
3984.28; 2.6585838; 1870285.4127483
3985.30; 2.6654574; 1870288.1260689
3986.32; 2.669517; 1870290.843522
3987.34; 2.676671; 1870293.5682575
3988.35; 2.6910873; 1870296.3076683
3989.37; 2.7140756; 1870299.0704801
3990.39; 2.7439746; 1870301.8637278
3991.41; 2.7770163; 1870304.6906105
3992.43; 2.8088298; 1870307.549878
3993.44; 2.8360802; 1870310.4368853
3994.46; 2.8577429; 1870313.3459442
3995.48; 2.875665; 1870316.2732471
3996.50; 2.8942916; 1870319.2195111
3997.52; 2.9196601; 1870322.191599
3998.53; 2.9579229; 1870325.2026369
3999.55; 3.0137433; 1870328.2704976
4000.57; 3.0889057; 1870331.4148703
4001.59; 3.181428; 1870334.6534268
4002.61; 3.2853727; 1870337.9977944
4003.62; 3.3914342; 1870341.4501281
4004.64; 3.4882494; 1870345.0010154
4005.66; 3.5642411; 1870348.6292591
4006.68; 3.6096867; 1870352.3037644
4007.70; 3.6186355; 1870355.9873792
4008.71; 3.5902963; 1870359.6421459
4009.73; 3.5296001; 1870363.2351265
4010.75; 3.4467894; 1870366.7438094
4011.77; 3.3560653; 1870370.1601391
4012.79; 3.2735059; 1870373.4924268
4013.80; 3.214604; 1870376.7647549
4014.82; 3.191857; 1870380.0139276
4015.84; 3.2128491; 1870383.2844693
4016.86; 3.2792083; 1870386.6225619
4017.88; 3.3866802; 1870390.0700563
4018.89; 3.5263546; 1870393.6597331
4019.91; 3.6868196; 1870397.4127563
4020.93; 3.8567547; 1870401.3387662
4021.95; 4.027288; 1870405.4383716
4022.97; 4.1934148; 1870409.7070869
4023.98; 4.3539767; 1870414.1392473
4025.00; 4.5101139; 1870418.7303486
4026.02; 4.6626362; 1870423.476711
4027.04; 4.8092409; 1870428.3723107
4028.06; 4.9427259; 1870433.4037923
4029.07; 5.0511791; 1870438.5456747
4030.09; 5.1205424; 1870443.758166
4031.11; 5.1391108; 1870448.989559
4032.13; 5.1027114; 1870454.1838991
4033.15; 5.0188236; 1870459.292845
4034.16; 4.9079926; 1870464.2889696
4035.18; 4.8015819; 1870469.1767728
4036.20; 4.7360311; 1870473.9978481
4037.22; 4.7449533; 1870478.8280059
4038.23; 4.8512257; 1870483.7663443
4039.25; 5.0613627; 1870488.9185931
4040.27; 5.3638499; 1870494.3787609
4041.29; 5.7319375; 1870500.2136259
4042.31; 6.1300379; 1870506.45374
4043.32; 6.5218139; 1870513.0926651
4044.34; 6.8776268; 1870520.0937924
4045.36; 7.179367; 1870527.4020782
4046.38; 7.4216568; 1870534.9570046
4047.40; 7.6096319; 1870542.7032815
4048.41; 7.7545453; 1870550.597074
4049.43; 7.868948; 1870558.6073235
4050.45; 7.9630588; 1870566.7133738
4051.47; 8.0432533; 1870574.9010585
4052.49; 8.1126734; 1870583.15941
4053.50; 8.1731525; 1870591.4793266
4054.52; 8.2272426; 1870599.8543046
4055.54; 8.279241; 1870608.2822147
4056.56; 8.3346527; 1870616.7665315
4057.58; 8.3982584; 1870625.3155962
4058.59; 8.4716028; 1870633.9393222
4059.61; 8.551027; 1870642.6438987
4060.63; 8.6272621; 1870651.4260792
4061.65; 8.6870987; 1870660.2691708
4062.67; 8.716954; 1870669.1426539
4063.68; 8.7074807; 1870678.0064935
4064.70; 8.6579256; 1870686.8198881
4065.72; 8.5788814; 1870695.5528192
4066.74; 8.4923938; 1870704.1977096
4067.76; 8.4290156; 1870712.7780838
4068.77; 8.4221698; 1870721.3514891
4069.79; 8.5008973; 1870730.0050358
4070.81; 8.6825562; 1870738.8435033
4071.83; 8.9671678; 1870747.9716932
4072.85; 9.3348443; 1870757.4741618
4073.86; 9.7471178; 1870767.3963071
4074.88; 10.152161; 1870777.7307689
4075.90; 10.49302; 1870788.4122105
4076.92; 10.717282; 1870799.3219406
4077.94; 10.786218; 1870810.3018447
4078.95; 10.68152; 1870821.1751716
4079.97; 10.408222; 1870831.7702922
4080.99; 9.9932155; 1870841.9429543
4082.01; 9.4797644; 1870851.5929455
4083.02; 8.9192469; 1870860.6723539
4084.04; 8.3619937; 1870869.1845027
4085.06; 7.8492054; 1870877.1746551
4086.08; 7.4076101; 1870884.7152825
4087.10; 7.0477898; 1870891.8896284
4088.11; 6.7661605; 1870898.7772878
4089.13; 6.549677; 1870905.4445764
4090.15; 6.3816991; 1870911.9408707
4091.17; 6.2472692; 1870918.3003212
4092.19; 6.1363641; 1870924.546875
4093.20; 6.0444052; 1870930.6998187
4094.22; 5.9702271; 1870936.7772522
4095.24; 5.912534; 1870942.7959567
4096.26; 5.8663557; 1870948.7676536
4097.28; 5.8209984; 1870954.6931788
4098.29; 5.7604595; 1870960.557078
4099.31; 5.666419; 1870966.325248
4100.33; 5.5229952; 1870971.9474187
4101.35; 5.3217853; 1870977.3647665
4102.37; 5.0655144; 1870982.5212416
4103.38; 4.7689761; 1870987.3758535
4104.40; 4.4567499; 1870991.9126326
4105.42; 4.1581634; 1870996.1454634
4106.44; 3.9008211; 1871000.116331
4107.46; 3.7044589; 1871003.8873103
4108.47; 3.5767868; 1871007.528325
4109.49; 3.512384; 1871011.1037803
4110.51; 3.4948203; 1871014.6613566
4111.53; 3.5012812; 1871018.2255098
4112.55; 3.5083386; 1871021.7968471
4113.56; 3.4973062; 1871025.3569538
4114.58; 3.4578668; 1871028.8769129
4115.60; 3.3892393; 1871032.3270123
4116.62; 3.2988665; 1871035.6851161
4117.64; 3.1992341; 1871038.9417983
4118.65; 3.1038263; 1871042.1013596
4119.67; 3.0233086; 1871045.1789573
4120.69; 2.9628397; 1871048.1950002
4121.71; 2.9210444; 1871051.1684974
4122.73; 2.8907348; 1871054.1111408
4123.74; 2.8610633; 1871057.0235797
4124.76; 2.8204988; 1871059.8947258
4125.78; 2.7598759; 1871062.7041603
4126.80; 2.6747887; 1871065.4269798
4127.82; 2.5667777; 1871068.0398488
4128.83; 2.4430459; 1871070.5267641
4129.85; 2.3147934; 1871072.8831239
4130.87; 2.1945972; 1871075.1171292
4131.89; 2.0934976; 1871077.2482194
4132.90; 2.0185291; 1871079.3029949
4133.92; 1.9713049; 1871081.3096983
4134.94; 1.9479764; 1871083.2926541
4135.96; 1.9405025; 1871085.2680019
4136.98; 1.9388142; 1871087.2416312
4137.99; 1.9332377; 1871089.2095838
4139.01; 1.9165224; 1871091.1605208
4140.03; 1.8850012; 1871093.0793707
4141.05; 1.8387172; 1871094.9511055
4142.07; 1.7806739; 1871096.7637547
4143.08; 1.715594; 1871098.5101553
4144.10; 1.6486424; 1871100.1884021
4145.12; 1.5844685; 1871101.8013227
4146.14; 1.5267247; 1871103.3554625
4147.16; 1.478005; 1871104.8600078
4148.17; 1.4400067; 1871106.3258724
4149.19; 1.4136929; 1871107.7649508
4150.21; 1.3993162; 1871109.1893943
4151.23; 1.3962983; 1871110.6107657
4152.25; 1.403072; 1871112.0390325
4153.26; 1.4170413; 1871113.4815194
4154.28; 1.4347674; 1871114.9420507
4155.30; 1.4523965; 1871116.4205277
4156.32; 1.4662314; 1871117.913088
4157.34; 1.473296; 1871119.4128397
4158.35; 1.4717429; 1871120.9110105
4159.37; 1.461025; 1871122.3982709
4160.39; 1.4418385; 1871123.8660003
4161.41; 1.4159144; 1871125.30734
4162.43; 1.3857495; 1871126.7179733
4163.44; 1.3543379; 1871128.0966308
4164.46; 1.3249035; 1871129.4453254
4165.48; 1.3005954; 1871130.7692754
4166.50; 1.2841061; 1871132.07644
4167.52; 1.2772232; 1871133.3765981
4168.53; 1.2803981; 1871134.6799882
4169.55; 1.2924708; 1871135.9956676
4170.57; 1.310694; 1871137.3298976
4171.59; 1.3311371; 1871138.6849377
4172.61; 1.3494305; 1871140.0585998
4173.62; 1.3616931; 1871141.4447446
4174.64; 1.3653979; 1871142.8346608
4175.66; 1.3599313; 1871144.2190122
4176.68; 1.3466783; 1871145.5898726
4177.69; 1.3286098; 1871146.94234
4178.71; 1.3094918; 1871148.2753462
4179.73; 1.2929471; 1871149.5915106
4180.75; 1.2816241; 1871150.8961486
4181.77; 1.276681; 1871152.1957547
4182.78; 1.2776801; 1871153.496378
4183.80; 1.2828675; 1871154.8022818
4184.82; 1.2897153; 1871156.1151563
4185.84; 1.2955595; 1871157.43398
4186.86; 1.298176; 1871158.7554671
4187.87; 1.2961853; 1871160.0749278
4188.89; 1.2892372; 1871161.3873157
4189.91; 1.2779809; 1871162.688245
4190.93; 1.2638554; 1871163.9747952
4191.95; 1.2487568; 1871165.2459758
4192.96; 1.2346418; 1871166.5027879
4193.98; 1.2231349; 1871167.7478865
4195.00; 1.2152099; 1871168.9849177
4196.02; 1.2110112; 1871170.2176749
4197.04; 1.209861; 1871171.4492612
4198.05; 1.2104565; 1871172.6814537
4199.07; 1.2112123; 1871173.9144156
4200.09; 1.210656; 1871175.1468111
4201.11; 1.2077634; 1871176.3762622
4202.13; 1.2021374; 1871177.5999862
4203.14; 1.1939853; 1871178.8154117
4204.16; 1.1839239; 1871180.0205951
4205.18; 1.1727033; 1871181.2143565
4206.20; 1.160971; 1871182.3961748
4207.22; 1.149177; 1871183.5659874
4208.23; 1.137658; 1871184.7240742
4209.25; 1.1268536; 1871185.8711626
4210.27; 1.1175394; 1871187.0087695
4211.29; 1.1109381; 1871188.1396566
4212.31; 1.1086042; 1871189.2681678
4213.32; 1.1120631; 1871190.4002
4214.34; 1.1222925; 1871191.5426453
4215.36; 1.1392139; 1871192.7023159
4216.38; 1.1613947; 1871193.8845656
4217.40; 1.1861097; 1871195.0919741
4218.41; 1.209807; 1871196.3235054
4219.43; 1.2288804; 1871197.5744526
4220.45; 1.2405359; 1871198.8372646
4221.47; 1.2434847; 1871200.1030784
4222.49; 1.2382317; 1871201.3635449
4223.50; 1.2268467; 1871202.6124219
4224.52; 1.2122733; 1871203.8464638
4225.54; 1.1973894; 1871205.0653545
4226.56; 1.1841256; 1871206.2707433
4227.57; 1.1729405; 1871207.4647461
4228.59; 1.1628401; 1871208.6484672
4229.61; 1.1519391; 1871209.8210914
4230.63; 1.1383744; 1871210.9799074
4231.65; 1.1212421; 1871212.1212836
4232.66; 1.1012118; 1871213.2422696
4233.68; 1.0805727; 1871214.342246
4234.70; 1.0626669; 1871215.423995
4235.72; 1.0508848; 1871216.4937504
4236.74; 1.0475668; 1871217.5601283
4237.75; 1.0532021; 1871218.6322425
4238.77; 1.0662187; 1871219.7176071
4239.79; 1.0834533; 1871220.8205158
4240.81; 1.1011413; 1871221.9414302
4241.83; 1.1160769; 1871223.0775483
4242.84; 1.1265306; 1871224.2243079
4243.86; 1.132599; 1871225.3772448
4244.88; 1.1358809; 1871226.5335225
4245.90; 1.1386269; 1871227.6925956
4246.92; 1.1427151; 1871228.8558303
4247.93; 1.1488648; 1871230.025325
4248.95; 1.1564058; 1871231.2024962
4249.97; 1.1636901; 1871232.3870825
4250.99; 1.1689679; 1871233.5770414
4252.01; 1.1713528; 1871234.7694279
4253.02; 1.1714486; 1871235.961912
4254.04; 1.1713386; 1871237.1542842
4255.06; 1.1738889; 1871238.3492524
4256.08; 1.1816052; 1871239.5520754
4257.10; 1.1954845; 1871240.7690271
4258.11; 1.2143397; 1871242.0051725
4259.13; 1.2349189; 1871243.2622666
4260.15; 1.2528529; 1871244.5376167
4261.17; 1.2641399; 1871245.8244566
4262.19; 1.266649; 1871247.1138506
4263.20; 1.2610796; 1871248.3975753
4264.22; 1.2509774; 1871249.6710163
4265.24; 1.2417304; 1871250.9350443
4266.26; 1.2388308; 1871252.1961206
4267.28; 1.2459654; 1871253.4644596
4268.29; 1.2635881; 1871254.7507378
4269.31; 1.2884904; 1871256.0623654
4270.33; 1.3145669; 1871257.4005377
4271.35; 1.334586; 1871258.7590887
4272.36; 1.3424357; 1871260.1256303
4273.38; 1.3351514; 1871261.4847568
4274.40; 1.3140895; 1871262.8224432
4275.42; 1.2848667; 1871264.130382
4276.44; 1.2560612; 1871265.4089981
4277.45; 1.2370448; 1871266.6682563
4278.47; 1.2355618; 1871267.9260049
4279.49; 1.2557392; 1871269.2042933
4280.51; 1.2970633; 1871270.5246477
4281.53; 1.3545729; 1871271.9035445
4282.54; 1.4201654; 1871273.3492116
4283.56; 1.484612; 1871274.8604825
4284.58; 1.5397104; 1871276.4278413
4285.60; 1.5800057; 1871278.0362189
4286.62; 1.6036727; 1871279.6686885
4287.63; 1.6124212; 1871281.3100638
4288.65; 1.6105643; 1871282.9495487
4289.67; 1.6036097; 1871284.5819542
4290.69; 1.5968245; 1871286.2074526
4291.71; 1.5941746; 1871287.8302536
4292.72; 1.5978728; 1871289.4568191
4293.74; 1.6085508; 1871291.0942545
4294.76; 1.6258686; 1871292.7493186
4295.78; 1.649256; 1871294.42819
4296.80; 1.678481; 1871296.1368112
4297.81; 1.713841; 1871297.8814274
4298.83; 1.7559451; 1871299.6689038
4299.85; 1.8052157; 1871301.5065355
4300.87; 1.8613459; 1871303.4013052
4301.89; 1.9229526; 1871305.358788
4302.90; 1.9875832; 1871307.3820619
4303.92; 2.0520908; 1871309.4710018
4304.94; 2.1132597; 1871311.622209
4305.96; 2.1684727; 1871313.8296207
4306.98; 2.2162165; 1871316.0856335
4307.99; 2.2562867; 1871318.3824359
4309.01; 2.2896716; 1871320.7132228
4310.03; 2.3181949; 1871323.0730452
4311.05; 2.3440561; 1871325.4591931
4312.07; 2.3694043; 1871327.8711445
4313.08; 2.3960278; 1871330.3101974
4314.10; 2.4251692; 1871332.778915
4315.12; 2.4574289; 1871335.2804715
4316.14; 2.4927018; 1871337.8179344
4317.15; 2.5301278; 1871340.3934953
4318.17; 2.5680806; 1871343.0076905
4319.19; 2.6042637; 1871345.6587186
4320.21; 2.6359895; 1871348.3420421
4321.23; 2.660678; 1871351.0504975
4322.24; 2.6765484; 1871353.7751083
4323.26; 2.683387; 1871356.5066804
4324.28; 2.6832158; 1871359.2380783
4325.30; 2.6806524; 1871361.9668668
4326.32; 2.6827751; 1871364.6978161
4327.33; 2.6983805; 1871367.444651
4328.35; 2.7366388; 1871370.2304312
4329.37; 2.8052994; 1871373.0861049
4330.39; 2.9087463; 1871376.0470832
4331.41; 3.0463192; 1871379.1481047
4332.42; 3.2113542; 1871382.4171247
4333.44; 3.3913298; 1871385.8693521
4334.46; 3.5693088; 1871389.5027544
4335.48; 3.7265726; 1871393.2962446
4336.50; 3.8460113; 1871397.2113181
4337.51; 3.9155587; 1871401.1971879
4338.53; 3.9308433; 1871405.1986168
4339.55; 3.896327; 1871409.1649095
4340.57; 3.8245375; 1871413.0581236
4341.59; 3.7334772; 1871416.8586423
4342.60; 3.6427917; 1871420.5668471
4343.62; 3.5696457; 1871424.2005924
4344.64; 3.5253563; 1871427.789253
4345.66; 3.5136358; 1871431.3659826
4346.68; 3.5308463; 1871434.9602317
4347.69; 3.5680987; 1871438.5924023
4348.71; 3.6145163; 1871442.2718239
4349.73; 3.660677; 1871445.9982351
4350.75; 3.7012395; 1871449.7659373
4351.77; 3.7360368; 1871453.5690615
4352.78; 3.769392; 1871457.4061398
4353.80; 3.8079415; 1871461.28246
4354.82; 3.8576701; 1871465.2094017
4355.84; 3.9210805; 1871469.2008924
4356.86; 3.9953665; 1871473.2680031
4357.87; 4.0721745; 1871477.413301
4358.89; 4.1390865; 1871481.6267124
4359.91; 4.182477; 1871485.8842935
4360.93; 4.1909961; 1871490.1505467
4361.95; 4.1587288; 1871494.3839532
4362.96; 4.087136; 1871498.5444813
4363.98; 3.9851908; 1871502.6012336
4365.00; 3.8676123; 1871506.538296
4366.02; 3.7516444; 1871510.3573081
4367.03; 3.6532535; 1871514.0761625
4368.05; 3.583804; 1871517.7243203
4369.07; 3.5481271; 1871521.3361606
4370.09; 3.5444639; 1871524.9442719
4371.11; 3.5661701; 1871528.5744792
4372.12; 3.6045128; 1871532.2437177
4373.14; 3.6515721; 1871535.9608606
4374.16; 3.70229; 1871539.729632
4375.18; 3.7550884; 1871543.5521499
4376.20; 3.8110544; 1871547.4316388
4377.21; 3.8722418; 1871551.3734139
4378.23; 3.9399499; 1871555.3841129
4379.25; 4.0137809; 1871559.4699686
4380.27; 4.0918804; 1871563.6353263
4381.29; 4.1721971; 1871567.8824429
4382.30; 4.2541; 1871572.2129331
4383.32; 4.3394912; 1871576.6303479
4384.34; 4.4327327; 1871581.1426785
4385.36; 4.5392095; 1871585.7633979
4386.38; 4.6629598; 1871590.5100897
4387.39; 4.804264; 1871595.4006232
4388.41; 4.9581842; 1871600.4478407
4389.43; 5.1147368; 1871605.6544221
4390.45; 5.2607801; 1871611.0096692
4391.47; 5.3830399; 1871616.4893715
4392.48; 5.471263; 1871622.0588812
4393.50; 5.5204416; 1871627.6784525
4394.52; 5.5314243; 1871633.3092037
4395.54; 5.5098537; 1871638.9179971
4396.56; 5.4639961; 1871644.4801093
4397.57; 5.402397; 1871649.9795163
4398.59; 5.3322707; 1871655.4075377
4399.61; 5.2591218; 1871660.7610967
4400.63; 5.1875002; 1871666.041748
4401.65; 5.1222501; 1871671.2559777
4402.66; 5.0693688; 1871676.4163764
4403.68; 5.0357443; 1871681.5425467
4404.70; 5.0275404; 1871686.6603659
4405.72; 5.0476382; 1871691.7986438
4406.74; 5.0930701; 1871696.9831695
4407.75; 5.1535762; 1871702.2292877
4408.77; 5.212173; 1871707.5350548
4409.79; 5.2480184; 1871712.8773111
4410.81; 5.2410833; 1871718.2125077
4411.82; 5.1774576; 1871723.4829362
4412.84; 5.0537749; 1871728.6274609
4413.86; 4.8793483; 1871733.5944269
4414.88; 4.675176; 1871738.3535543
4415.90; 4.469821; 1871742.9036392
4416.91; 4.2930721; 1871747.2738013
4417.93; 4.1689643; 1871751.5176271
4418.95; 4.110001; 1871755.7014308
4419.97; 4.1141642; 1871759.8894724
4420.99; 4.1656003; 1871764.1298737
4422.00; 4.2388901; 1871768.444881
4423.02; 4.3058305; 1871772.8280306
4424.04; 4.3429326; 1871777.2489486
4425.06; 4.3376039; 1871781.6644422
4426.08; 4.2912986; 1871786.032799
4427.09; 4.21874; 1871790.3272942
4428.11; 4.1434119; 1871794.5451088
4429.13; 4.090588; 1871798.7091509
4430.15; 4.0798922; 1871802.8623051
4431.17; 4.1195463; 1871807.0558254
4432.18; 4.2039816; 1871811.3352973
4433.20; 4.3155077; 1871815.7282979
4434.22; 4.4295223; 1871820.2373605
4435.24; 4.5216848; 1871824.8402405
4436.26; 4.5748883; 1871829.4972794
4437.27; 4.583946; 1871834.1635386
4438.29; 4.5566388; 1871838.8020002
4439.31; 4.5109142; 1871843.3939162
4440.33; 4.4692295; 1871847.943399
4441.35; 4.4518945; 1871852.4752355
4442.36; 4.4715207; 1871857.0270506
4443.38; 4.5302439; 1871861.6386434
4444.40; 4.6204128; 1871866.3420243
4445.42; 4.7282569; 1871871.1551858
4446.44; 4.8390694; 1871876.0811497
4447.45; 4.9419917; 1871881.111884
4448.47; 5.0327192; 1871886.234975
4449.49; 5.113271; 1871891.4400642
4450.51; 5.1890953; 1871896.7223393
4451.53; 5.2648011; 1871902.0816796
4452.54; 5.3403585; 1871907.5179341
4453.56; 5.4094742; 1871913.0245454
4454.58; 5.4610569; 1871918.5836657
4455.60; 5.4835058; 1871924.165638
4456.62; 5.4703996; 1871929.7342688
4457.63; 5.4254557; 1871935.2571485
4458.65; 5.364668; 1871940.718149
4459.67; 5.3143453; 1871946.1279232
4460.69; 5.3051288; 1871951.5283154
4461.70; 5.3635249; 1871956.9881523
4462.72; 5.5035277; 1871962.590506
4463.74; 5.7211316; 1871968.4143711
4464.76; 5.9938049; 1871974.5158059
4465.78; 6.2854969; 1871980.9141705
4466.79; 6.5559552; 1871987.5878501
4467.81; 6.771638; 1871994.4810853
4468.83; 6.914853; 1872001.5201073
4469.85; 6.9882114; 1872008.6338049
4470.87; 7.012936; 1872015.7726711
4471.88; 7.0215538; 1872022.9203099
4472.90; 7.0473513; 1872030.0942094
4473.92; 7.1140361; 1872037.3359912
4474.94; 7.2289425; 1872044.6947428
4475.96; 7.3818617; 1872052.2091595
4476.97; 7.5496157; 1872059.8943425
4477.99; 7.7045222; 1872067.7372136
4479.01; 7.8236261; 1872075.7013274
4480.03; 7.8954595; 1872083.7385645
4481.05; 7.9221537; 1872091.8029751
4482.06; 7.9165479; 1872099.8616792
4483.08; 7.8958254; 1872107.8992887
4484.10; 7.8744269; 1872115.9151155
4485.12; 7.8591049; 1872123.9153451
4486.14; 7.8479704; 1872131.9042404
4487.15; 7.833665; 1872139.8785733
4488.17; 7.8090789; 1872147.8278786
4489.19; 7.7730023; 1872155.7404596
4490.21; 7.7331575; 1872163.6124803
4491.23; 7.7051702; 1872171.456011
4492.24; 7.7077399; 1872179.3021576
4493.26; 7.7558641; 1872187.1972926
4494.28; 7.8548141; 1872195.1931544
4495.30; 7.9973144; 1872203.3340754
4496.32; 8.1651505; 1872211.6458464
4497.33; 8.3347089; 1872220.1302203
4498.35; 8.4844339; 1872228.7670079
4499.37; 8.6014556; 1872237.5229185
4500.39; 8.6849707; 1872246.3638439
4501.41; 8.7452105; 1872255.2660908
4502.42; 8.7984792; 1872264.222563
4503.44; 8.8601797; 1872273.2418436
4504.46; 8.9384039; 1872282.3407531
4505.48; 9.0303594; 1872291.5332692
4506.49; 9.1227725; 1872300.819858
4507.51; 9.1959362; 1872310.1809242
4508.53; 9.2297993; 1872319.5764615
4509.55; 9.2098903; 1872328.9517325
4510.57; 9.1310932; 1872338.2467913
4511.58; 8.9981991; 1872347.4065697
4512.60; 8.8233718; 1872356.3883815
4513.62; 8.6217086; 1872365.1649088
4514.64; 8.4066221; 1872373.7224873
4515.66; 8.1866466; 1872382.0561403
4516.67; 7.9646179; 1872390.1637777
4517.69; 7.7392574; 1872398.0420077
4518.71; 7.5083562; 1872405.6851904
4519.73; 7.2722762; 1872413.0880537
4520.75; 7.0364678; 1872420.2508743
4521.76; 6.8121166; 1872427.185315
4522.78; 6.6146669; 1872433.9187604
4523.80; 6.4606362; 1872440.4954093
4524.82; 6.3636081; 1872446.9732878
4525.84; 6.3304822; 1872453.4174454
4526.85; 6.3589482; 1872459.8905803
4527.87; 6.4368104; 1872466.4429754
4528.89; 6.5433297; 1872473.1038027
4529.91; 6.6522989; 1872479.875556
4530.93; 6.7362133; 1872486.7327305
4531.94; 6.7707039; 1872493.6250149
4532.96; 6.7383861; 1872500.4844011
4533.98; 6.6314213; 1872507.2349019
4535.00; 6.4523593; 1872513.8031252
4536.02; 6.2131645; 1872520.1278586
4537.03; 5.9326719; 1872526.1670626
4538.05; 5.6330042; 1872531.9012177
4539.07; 5.3356629; 1872537.3326923
4540.09; 5.0580517; 1872542.4815707
4541.11; 4.8110869; 1872547.3790495
4542.12; 4.5983148; 1872552.0599356
4543.14; 4.4166352; 1872556.5558796
4544.16; 4.2583742; 1872560.8907208
4545.18; 4.1141524; 1872565.0787504
4546.20; 3.9758066; 1872569.1259499
4547.21; 3.8386227; 1872573.0335022
4548.23; 3.7023165; 1872576.8023006
4549.25; 3.5705462; 1872580.4369625
4550.27; 3.449155; 1872583.9480535
4551.29; 3.3437217; 1872587.3518179
4552.30; 3.2572141; 1872590.6675213
4553.32; 3.1885225; 1872593.9132996
4554.34; 3.1323854; 1872597.1019328
4555.36; 3.0807737; 1872600.2380274
4556.37; 3.0253152; 1872603.3176677
4557.39; 2.9599769; 1872606.3307965
4558.41; 2.8831043; 1872609.2656723
4559.43; 2.7981018; 1872612.1140192
4560.45; 2.7124706; 1872614.8751972
4561.46; 2.6354617; 1872617.5579835
4562.48; 2.5750695; 1872620.1792931
4563.50; 2.5353242; 1872622.7601438
4564.52; 2.5147548; 1872625.3200557
4565.54; 2.506523; 1872627.871588
4566.55; 2.5001882; 1872630.4166717
4567.57; 2.4845493; 1872632.9458357
4568.59; 2.4506805; 1872635.4405226
4569.61; 2.3942511; 1872637.8777669
4570.63; 2.3164772; 1872640.2358408
4571.64; 2.2235098; 1872642.4992778
4572.66; 2.1245508; 1872644.6619789
4573.68; 2.0293486; 1872646.7277682
4574.70; 1.9458473; 1872648.7085567
4575.72; 1.8786325; 1872650.6209235
4576.73; 1.8284963; 1872652.4822539
4577.75; 1.793058; 1872654.3075095
4578.77; 1.7680629; 1872656.1073212
4579.79; 1.7488384; 1872657.8875633
4580.81; 1.7314318; 1872659.6500862
4581.82; 1.7131623; 1872661.3940114
4582.84; 1.6925841; 1872663.116989
4583.86; 1.6690799; 1872664.8160404
4584.88; 1.6424018; 1872666.4879345
4585.90; 1.6124324; 1872668.129321
4586.91; 1.5792794; 1872669.7369593
4587.93; 1.5436183; 1872671.3082961
4588.95; 1.5070526; 1872672.8424106
4589.97; 1.4722219; 1872674.341069
4590.99; 1.4424789; 1872675.8094503
4592.00; 1.4211312; 1872677.2561005
4593.02; 1.4104415; 1872678.6918691
4594.04; 1.4107098; 1872680.1279107
4595.06; 1.4197768; 1872681.5731822
4596.08; 1.4331747; 1872683.0320923
4597.09; 1.4449513; 1872684.5029903
4598.11; 1.4489739; 1872685.9779832
4599.13; 1.4403659; 1872687.4442135
4600.15; 1.4166785; 1872688.886331
4601.16; 1.3784858; 1872690.28957
4602.18; 1.3292578; 1872691.6426971
4603.20; 1.2745704; 1872692.9401548
4604.22; 1.2208774; 1872694.1829553
4605.24; 1.1741597; 1872695.3781992
4606.25; 1.1387604; 1872696.5374082
4607.27; 1.116638; 1872697.6740974
4608.29; 1.1071479; 1872698.8011262
4609.31; 1.1073478; 1872699.9283585
4610.33; 1.1127221; 1872701.0610615
4611.34; 1.1181614; 1872702.1993016
4612.36; 1.1190015; 1872703.3383969
4613.38; 1.1119234; 1872704.4702869
4614.40; 1.0955399; 1872705.5854992
4615.42; 1.070551; 1872706.675274
4616.43; 1.0394354; 1872707.7333744
4617.45; 1.0057524; 1872708.7571869
4618.47; 0.97323303; 1872709.7478962
4619.49; 0.94490318; 1872710.7097668
4620.51; 0.9224758; 1872711.6488074
4621.52; 0.90617179; 1872712.5712512
4622.54; 0.89498768; 1872713.48231
4623.56; 0.88727979; 1872714.3855225
4624.58; 0.88143016; 1872715.2827804
4625.60; 0.87634416; 1872716.1748609
4626.61; 0.87161157; 1872717.0621239
4627.63; 0.86731149; 1872717.9450096
4628.65; 0.86359516; 1872718.8241122
4629.67; 0.86027411; 1872719.6998341
4630.69; 0.85663293; 1872720.5718495
4631.70; 0.85157868; 1872721.4387198
4632.72; 0.8440783; 1872722.2979551
4633.74; 0.83369253; 1872723.1466181
4634.76; 0.82095461; 1872723.9823145
4635.78; 0.80739315; 1872724.8042059
4636.79; 0.79514236; 1872725.6136265
4637.81; 0.7862585; 1872726.4140037
4638.83; 0.78199305; 1872727.2100389
4639.85; 0.78230406; 1872728.0063907
4640.87; 0.7858021; 1872728.8063033
4641.88; 0.79016173; 1872729.6106538
4642.90; 0.79285168; 1872730.4177426
4643.92; 0.79191932; 1872731.2238823
4644.94; 0.78655361; 1872732.02456
4645.96; 0.7772456; 1872732.8157624
4646.97; 0.7655236; 1872733.5950324
4647.99; 0.75339443; 1872734.3619555
4649.01; 0.74271284; 1872735.1180051
4650.03; 0.73469751; 1872735.8658954
4651.04; 0.72972579; 1872736.6087248
4652.06; 0.72741547; 1872737.3492024
4653.08; 0.72689486; 1872738.08915
4654.10; 0.72711522; 1872738.8293219
4655.12; 0.72708242; 1872739.5694604
4656.13; 0.72595744; 1872740.3084538
4657.15; 0.72305574; 1872741.0444933
4658.17; 0.71782479; 1872741.775208
4659.19; 0.70987479; 1872742.4978299
4660.21; 0.69908887; 1872743.2094722
4661.22; 0.68577259; 1872743.9075591
4662.24; 0.67075658; 1872744.5903603
4663.26; 0.65536564; 1872745.2574943
4664.28; 0.64121472; 1872745.9102232
4665.30; 0.62986668; 1872746.5514003
4666.31; 0.62245423; 1872747.1850319
4667.33; 0.61939574; 1872747.81555
4668.35; 0.62030906; 1872748.4469978
4669.37; 0.62415646; 1872749.0823622
4670.39; 0.62956743; 1872749.7232347
4671.40; 0.63522018; 1872750.3698614
4672.42; 0.64014436; 1872751.0215007
4673.44; 0.64384463; 1872751.6769068
4674.46; 0.64622091; 1872752.3347318
4675.48; 0.6473449; 1872752.993701
4676.49; 0.64720899; 1872753.6525318
4677.51; 0.6455703; 1872754.3096945
4678.53; 0.64196727; 1872754.9631895
4679.55; 0.63590866; 1872755.610517
4680.57; 0.62715702; 1872756.2489358
4681.58; 0.61598286; 1872756.8759798
4682.60; 0.60327085; 1872757.4900835
4683.62; 0.59041278; 1872758.0910982
4684.64; 0.57900316; 1872758.6804985
4685.66; 0.57042917; 1872759.2611707
4686.67; 0.56548902; 1872759.8368142
4687.69; 0.56416428; 1872760.411109
4688.71; 0.56561826; 1872760.986884
4689.73; 0.56841512; 1872761.5655061
4690.75; 0.57088254; 1872762.1466399
4691.76; 0.57150202; 1872762.7284043
4692.78; 0.56921566; 1872763.3078413
4693.80; 0.56358125; 1872763.8815426
4694.82; 0.55476786; 1872764.4462724
4695.83; 0.54343566; 1872764.9994664
4696.85; 0.53056733; 1872765.5395611
4697.87; 0.51730847; 1872766.0661588
4698.89; 0.50484106; 1872766.5800652
4699.91; 0.49427834; 1872767.0832192
4700.92; 0.48655034; 1872767.5785065
4701.94; 0.48225935; 1872768.0694257
4702.96; 0.48151713; 1872768.5595893
4703.98; 0.48381413; 1872769.0520912
4705.00; 0.48799258; 1872769.5488466
4706.01; 0.49238278; 1872770.0500711
4707.03; 0.49511475; 1872770.5540765
4708.05; 0.49454993; 1872771.057507
4709.07; 0.48971775; 1872771.5560185
4710.09; 0.48061698; 1872772.0452659
4711.10; 0.4682672; 1872772.5219417
4712.12; 0.45446818; 1872772.9845707
4713.14; 0.44132074; 1872773.4338162
4714.16; 0.43064704; 1872773.8721963
4715.18; 0.42348947; 1872774.3032903
4716.19; 0.41984714; 1872774.7306766
4717.21; 0.41873346; 1872775.1569291
4718.23; 0.4185329; 1872775.5829776
4719.25; 0.41753716; 1872776.0080124
4720.27; 0.41448476; 1872776.42994
4721.28; 0.40893302; 1872776.8462162
4722.30; 0.40135322; 1872777.2547764
4723.32; 0.39293532; 1872777.6547676
4724.34; 0.38518375; 1872778.0468681
4725.36; 0.37944718; 1872778.4331289
4726.37; 0.37653571; 1872778.816426
4727.39; 0.37653721; 1872779.1997246
4728.41; 0.37887111; 1872779.5853991
4729.43; 0.38253811; 1872779.9748064
4730.45; 0.38646664; 1872780.3682127
4731.46; 0.38983693; 1872780.7650499
4732.48; 0.39228386; 1872781.1643779
4733.50; 0.39392796; 1872781.5653796
4734.52; 0.3952427; 1872781.9677196
4735.54; 0.39681426; 1872782.3716594
4736.55; 0.39907599; 1872782.7779016
4737.57; 0.40209884; 1872783.1872208
4738.59; 0.40549578; 1872783.599998
4739.61; 0.40846314; 1872784.0157959
4740.63; 0.4099445; 1872784.4331017
4741.64; 0.4088739; 1872784.8493177
4742.66; 0.40443817; 1872785.2610183
4743.68; 0.39629586; 1872785.6644304
4744.70; 0.38470114; 1872786.0560395
4745.71; 0.37050204; 1872786.4331946
4746.73; 0.35501035; 1872786.7945799
4747.75; 0.33976932; 1872787.1404504
4748.77; 0.32626953; 1872787.4725787
4749.79; 0.31567735; 1872787.7939246
4750.80; 0.30863826; 1872788.108105
4751.82; 0.30520032; 1872788.4187858
4752.84; 0.30487194; 1872788.7291323
4753.86; 0.30679301; 1872789.0414343
4754.88; 0.30996802; 1872789.3569684
4755.89; 0.31349457; 1872789.6760923
4756.91; 0.31672538; 1872789.9985051
4757.93; 0.31932589; 1872790.3235651
4758.95; 0.32122521; 1872790.6505584
4759.97; 0.32249346; 1872790.9788429
4760.98; 0.32320219; 1872791.3078488
4762.00; 0.32332666; 1872791.6369813
4763.02; 0.32273079; 1872791.9655074
4764.04; 0.32124094; 1872792.2925168
4765.06; 0.31877806; 1872792.6170191
4766.07; 0.31549136; 1872792.9381757
4767.09; 0.31183051; 1872793.2556057
4768.11; 0.30851224; 1872793.5696578
4769.13; 0.30637332; 1872793.8815327
4770.15; 0.30614541; 1872794.1931755
4771.16; 0.30822082; 1872794.506931
4772.18; 0.3124894; 1872794.8250317
4773.20; 0.3183106; 1872795.1490582
4774.22; 0.32464333; 1872795.4795311
4775.24; 0.33030452; 1872795.8157668
4776.25; 0.33428147; 1872796.1560509
4777.27; 0.33600117; 1872796.4980856
4778.29; 0.33547046; 1872796.8395801
4779.31; 0.33324196; 1872797.178806
4780.33; 0.33021915; 1872797.5149548
4781.34; 0.32736901; 1872797.8482024
4782.36; 0.32544162; 1872798.1794879
4783.38; 0.32479126; 1872798.5101114
4784.40; 0.32535383; 1872798.8413075
4785.42; 0.32677488; 1872799.1739503
4786.43; 0.32862473; 1872799.508476
4787.45; 0.33060474; 1872799.8450174
4788.47; 0.33265541; 1872800.1836463
4789.49; 0.33491988; 1872800.5245802
4790.50; 0.33758006; 1872800.8682222
4791.52; 0.34064011; 1872801.2149791
4792.54; 0.34375942; 1872801.5649114
4793.56; 0.34622247; 1872801.9173509
4794.58; 0.34708025; 1872802.2706636
4795.59; 0.34542729; 1872802.6222937
4796.61; 0.34071941; 1872802.9691313
4797.63; 0.33301332; 1872803.3081245
4798.65; 0.32303157; 1872803.6369567
4799.67; 0.31201726; 1872803.9545768
4800.68; 0.30141901; 1872804.2614084
4801.70; 0.29250805; 1872804.559169
4802.72; 0.28605346; 1872804.850359
4803.74; 0.28215887; 1872805.1375846
4804.76; 0.28030562; 1872805.4229236
4805.77; 0.27957515; 1872805.7075191
4806.79; 0.27896642; 1872805.9914949
4807.81; 0.27770031; 1872806.2741818
4808.83; 0.27541954; 1872806.554547
4809.85; 0.27223781; 1872806.8316733
4810.86; 0.26864717; 1872807.1051446
4811.88; 0.26533535; 1872807.3752445
4812.90; 0.26298272; 1872807.6429496
4813.92; 0.26209921; 1872807.9097552
4814.94; 0.2629339; 1872808.1774106
4815.95; 0.26545913; 1872808.4476366
4816.97; 0.26940869; 1872808.721883
4817.99; 0.27434232; 1872809.0011516
4819.01; 0.27971448; 1872809.2858889
4820.03; 0.28493678; 1872809.5759422
4821.04; 0.28943289; 1872809.8705724
4822.06; 0.29268877; 1872810.168517
4823.08; 0.29429834; 1872810.4681
4824.10; 0.29400157; 1872810.7673809
4825.12; 0.29171008; 1872811.0643292
4826.13; 0.28751787; 1872811.35701
4827.15; 0.28169862; 1872811.643767
4828.17; 0.27469353; 1872811.9233932
4829.19; 0.26709129; 1872812.1952806
4830.21; 0.259596; 1872812.4595381
4831.22; 0.25297381; 1872812.7170545
4832.24; 0.24796938; 1872812.9694766
4833.26; 0.24519334; 1872813.2190729
4834.28; 0.24499785; 1872813.4684701
4835.30; 0.24737421; 1872813.7202864
4836.31; 0.25191292; 1872813.9767229
4837.33; 0.25785704; 1872814.2392102
4838.35; 0.26425357; 1872814.5082089
4839.37; 0.27017273; 1872814.7832331
4840.38; 0.27493508; 1872815.0631052
4841.40; 0.27827494; 1872815.3463771
4842.42; 0.28038311; 1872815.631795
4843.44; 0.28180888; 1872815.9186643
4844.46; 0.28324948; 1872816.207
4845.47; 0.28529503; 1872816.497418
4846.49; 0.28821443; 1872816.7908079
4847.51; 0.29185434; 1872817.087903
4848.53; 0.29568458; 1872817.3888971
4849.55; 0.29897263; 1872817.6932384
4850.56; 0.30102709; 1872817.999671
4851.58; 0.30142823; 1872818.3065119
4852.60; 0.30017179; 1872818.6120738
4853.62; 0.29768324; 1872818.9151025
4854.64; 0.29470258; 1872819.215097
4855.65; 0.29207855; 1872819.5124204
4856.67; 0.29053431; 1872819.8081718
4857.69; 0.29046859; 1872820.1038563
4858.71; 0.29184092; 1872820.4009377
4859.73; 0.29416412; 1872820.7003841
4860.74; 0.29660066; 1872821.0023108
4861.76; 0.2981385; 1872821.3058029
4862.78; 0.29780944; 1872821.6089601
4863.80; 0.29490743; 1872821.9091631
4864.82; 0.28916517; 1872822.2035208
4865.83; 0.28085284; 1872822.4894168
4866.85; 0.27077389; 1872822.765053
4867.87; 0.26014992; 1872823.0298744
4868.89; 0.25040915; 1872823.2847801
4869.91; 0.24291636; 1872823.5320584
4870.92; 0.23870135; 1872823.7750461
4871.94; 0.23824898; 1872824.0175733
4872.96; 0.24140379; 1872824.2633119
4873.98; 0.24741557; 1872824.5151703
4875.00; 0.25511551; 1872824.7748669
4876.01; 0.26317758; 1872825.0427703
4877.03; 0.27039658; 1872825.3180223
4878.05; 0.27591229; 1872825.5988891
4879.07; 0.27932787; 1872825.8832329
4880.09; 0.28070489; 1872826.1689783
4881.10; 0.28045412; 1872826.4544685
4882.12; 0.27916945; 1872826.738651
4883.14; 0.27746125; 1872827.0210946
4884.16; 0.27583565; 1872827.3018833
4885.17; 0.27464092; 1872827.5814559
4886.19; 0.27407392; 1872827.8604514
4887.21; 0.27421871; 1872828.1395942
4888.23; 0.27508328; 1872828.4196171
4889.25; 0.27661144; 1872828.7011956
4890.26; 0.27866681; 1872828.9848664
4891.28; 0.28100765; 1872829.2709201
4892.30; 0.28328159; 1872829.5592885
4893.32; 0.28506537; 1872829.8494727
4894.34; 0.28595565; 1872830.1405632
4895.35; 0.28569086; 1872830.4313842
4896.37; 0.28426315; 1872830.7207518
4897.39; 0.28197256; 1872831.0077877
4898.41; 0.279389; 1872831.2921937
4899.43; 0.2772171; 1872831.5743887
4900.44; 0.27609564; 1872831.8554422
4901.46; 0.27639154; 1872832.1367968
4902.48; 0.27805793; 1872832.4198478
4903.50; 0.28060986; 1872832.7054965
4904.52; 0.2832347; 1872832.9938172
4905.53; 0.2850093; 1872833.2839444
4906.55; 0.28515899; 1872833.5742239
4907.57; 0.28327821; 1872833.8625889
4908.59; 0.27944525; 1872834.1470521
4909.61; 0.27419985; 1872834.4261758
4910.62; 0.2683981; 1872834.6993934
4911.64; 0.26299797; 1872834.967114
4912.66; 0.25884608; 1872835.2306082
4913.68; 0.25652736; 1872835.4917419
4914.70; 0.25630851; 1872835.752653
4915.71; 0.25816879; 1872836.0154576
4916.73; 0.26188142; 1872836.2820416
4917.75; 0.26709984; 1872836.5539377
4918.77; 0.27341424; 1872836.8322616
4919.79; 0.28037035; 1872837.1176666
4920.80; 0.2874681; 1872837.4102967
4921.82; 0.29417074; 1872837.7097498
4922.84; 0.2999489; 1872838.0150848
4923.86; 0.30436099; 1872838.3249112
4924.88; 0.30714536; 1872838.6375719
4925.89; 0.3082828; 1872838.9513905
4926.91; 0.30799198; 1872839.264913
4927.93; 0.30664507; 1872839.5770645
4928.95; 0.30462602; 1872839.8871606
4929.97; 0.30218418; 1872840.1947711
4930.98; 0.29934551; 1872840.4994919
4932.00; 0.29592634; 1872840.8007321
4933.02; 0.29165488; 1872841.0976242
4934.04; 0.28635965; 1872841.389126
4935.05; 0.28015135; 1872841.674308
4936.07; 0.27351942; 1872841.9527389
4937.09; 0.26729211; 1872842.2248308
4938.11; 0.26245882; 1872842.4920025
4939.13; 0.25990594; 1872842.7565756
4940.14; 0.26015343; 1872843.0214005
4941.16; 0.26318177; 1872843.2893082
4942.18; 0.26840903; 1872843.562537
4943.20; 0.27482578; 1872843.8422978
4944.22; 0.28124218; 1872844.1285902
4945.23; 0.28656711; 1872844.4203032
4946.25; 0.29003509; 1872844.7155464
4947.27; 0.29132239; 1872845.0121
4948.29; 0.29053728; 1872845.3078544
4949.31; 0.28811206; 1872845.60114
4950.32; 0.28465058; 1872845.890902
4951.34; 0.28078647; 1872846.1767306
4952.36; 0.27708759; 1872846.4587938
4953.38; 0.27401275; 1872846.7377269
4954.40; 0.27190219; 1872847.0145116
4955.41; 0.2709743; 1872847.2903518
4956.43; 0.27130957; 1872847.5665332
4957.45; 0.27282297; 1872847.8442552
4958.47; 0.27524522; 1872848.124443
4959.49; 0.27814176; 1872848.4075793
4960.50; 0.28098887; 1872848.6936138
4961.52; 0.28330337; 1872848.9820044
4962.54; 0.28479498; 1872849.2719134
4963.56; 0.28549105; 1872849.562531
4964.58; 0.28578294; 1872849.8534457
4965.59; 0.28636275; 1872850.1449506
4966.61; 0.28805394; 1872850.4381771
4967.63; 0.29157668; 1872850.7349896
4968.65; 0.29731464; 1872851.037643
4969.67; 0.30515476; 1872851.3482774
4970.68; 0.31445293; 1872851.6683769
4971.70; 0.32414159; 1872851.9983391
4972.72; 0.33295321; 1872852.3372711
4973.74; 0.33969944; 1872852.6830705
4974.76; 0.34353078; 1872853.03277
4975.77; 0.34410919; 1872853.3830583
4976.79; 0.34165319; 1872853.7308465
4977.81; 0.33685186; 1872854.0737471
4978.83; 0.33067929; 1872854.4103644
4979.84; 0.3241636; 1872854.7403489
4980.86; 0.31817057; 1872855.0642329
4981.88; 0.31325066; 1872855.3831085
4982.90; 0.3095764; 1872855.6982439
4983.92; 0.3069716; 1872856.0107278
4984.93; 0.3050129; 1872856.3212177
4985.95; 0.30317201; 1872856.6298338
4986.97; 0.30096407; 1872856.9362022
4987.99; 0.29807274; 1872857.2396274
4989.01; 0.29443154; 1872857.539346
4990.02; 0.29025072; 1872857.8348087
4991.04; 0.28598782; 1872858.125932
4992.06; 0.28226753; 1872858.4132681
4993.08; 0.27976365; 1872858.6980555
4994.10; 0.2790619; 1872858.9821284
4995.11; 0.28052825; 1872859.2676941
4996.13; 0.28420917; 1872859.5570068
4997.15; 0.28978764; 1872859.8519981
4998.17; 0.29660989; 1872860.1539341
