#Wavenumber (cm^-1); Spectrum (K*cm*km*mol^-1); Integral (K*km*mol^-1)
0.00; 6.8430415; 6.9659209411594
1.02; 7.1465073; 14.24075698882
2.04; 8.037772; 22.422862063868
3.05; 9.4625144; 32.055293393871
4.07; 11.339748; 43.598667283539
5.09; 13.573845; 57.416255301662
6.11; 16.067373; 73.772147579556
7.13; 18.731999; 92.840514194157
8.14; 21.495355; 114.72185824325
9.16; 24.302946; 139.46120882171
10.18; 27.115521; 167.06363914481
11.20; 29.903489; 197.5041007401
12.22; 32.64057; 230.7307925725
13.23; 35.298796; 266.6634439247
14.25; 37.84634; 305.18938459639
15.27; 40.248666; 346.16078960191
16.29; 42.47258; 389.39604377451
17.31; 44.492074; 434.6870552042
18.32; 46.294554; 481.81291333449
19.34; 47.886015; 530.55880986361
20.36; 49.29378; 580.73775061497
21.38; 50.56561; 632.21136008541
22.40; 51.764308; 684.90519159972
23.41; 52.957632; 738.81377544097
24.43; 54.204539; 793.99165754583
25.45; 55.540262; 850.52924801524
26.47; 56.964113; 908.51625720029
27.48; 58.434406; 967.999961366
28.50; 59.873876; 1028.9489831476
29.52; 61.186314; 1091.2340106732
30.54; 62.281428; 1154.6338164099
31.56; 63.101334; 1218.8682512636
32.57; 63.640275; 1283.651305154
33.59; 63.950079; 1348.7497262056
34.61; 64.127863; 1414.0291236342
35.63; 64.288353; 1479.4718932869
36.65; 64.528932; 1545.1595612596
37.66; 64.898845; 1611.2237849572
38.68; 65.38338; 1677.7812446803
39.70; 65.909103; 1744.8738674818
40.72; 66.369033; 1812.4346789203
41.74; 66.659532; 1880.2912060237
42.75; 66.716439; 1948.2056619298
43.77; 66.538264; 2015.9387437936
44.79; 66.188997; 2083.3162867341
45.81; 65.780364; 2150.2778587324
46.83; 65.4404; 2216.8933615719
47.84; 65.279244; 2283.3448148147
48.86; 65.362827; 2349.8813519452
49.88; 65.701005; 2416.762139597
50.90; 66.250796; 2484.2025906827
51.92; 66.930244; 2552.3346913375
52.93; 67.636145; 2621.1853678339
53.95; 68.259914; 2690.6710150457
54.97; 68.699295; 2760.6039331245
55.99; 68.867119; 2830.70768855
57.01; 68.700154; 2900.6414802743
58.02; 68.170039; 2970.0356382019
59.04; 67.295167; 3038.5392138693
60.06; 66.148895; 3105.8759349321
61.08; 64.857909; 3171.8984879001
62.10; 63.586167; 3236.6264622184
63.11; 62.504586; 3300.2534338291
64.13; 61.752568; 3363.1148835755
65.15; 61.402099; 3425.61957037
66.17; 61.436156; 3488.1589261848
67.19; 61.749681; 3551.0174371983
68.20; 62.174383; 3614.3082756729
69.22; 62.520731; 3677.951682342
70.24; 62.624661; 3741.7008851871
71.26; 62.384979; 3805.2061022468
72.27; 61.780925; 3868.0964181616
73.29; 60.866295; 3930.0556803699
74.31; 59.74443; 3990.8729320979
75.33; 58.534196; 4050.4582177427
76.35; 57.33892; 4108.8267640605
77.36; 56.227668; 4166.0641035989
78.38; 55.232644; 4222.2885516316
79.40; 54.360162; 4277.6248508796
80.42; 53.607991; 4332.1954719612
81.44; 52.980437; 4386.1272709533
82.45; 52.494509; 4439.5644154455
83.47; 52.17475; 4492.6760592243
84.49; 52.039196; 4545.6497147425
85.51; 52.082432; 4598.6673826544
86.53; 52.262974; 4651.8688350206
87.54; 52.500803; 4705.3123869062
88.56; 52.687569; 4758.9460580926
89.58; 52.707906; 4812.6004323313
90.60; 52.466689; 4866.0092578754
91.62; 51.914929; 4918.856415782
92.63; 51.066964; 4970.840381604
93.65; 50.003521; 5021.7418080597
94.67; 48.858803; 5071.4779607164
95.69; 47.793967; 5120.1301564627
96.71; 46.963203; 5167.9366706336
97.72; 46.480934; 5215.2522557878
98.74; 46.398671; 5262.4841008055
99.76; 46.697551; 5310.0201924772
100.78; 47.298123; 5358.1676406271
101.80; 48.08384; 5407.1149147493
102.81; 48.930569; 5456.9241224747
103.83; 49.73278; 5507.5499460599
104.85; 50.418575; 5558.8738796943
105.87; 50.950024; 5610.7388052117
106.89; 51.310843; 5662.9710297316
107.90; 51.488305; 5715.3839026317
108.92; 51.458393; 5767.7663264985
109.94; 51.181824; 5819.8672146063
110.96; 50.61393; 5871.3900112487
111.98; 49.725395; 5922.0083172578
112.99; 48.525715; 5971.4054015222
114.01; 47.07922; 6019.3300164043
115.03; 45.505398; 6065.6525481307
116.05; 43.96067; 6110.4026127415
117.07; 42.60559; 6153.7732650201
118.08; 41.567224; 6196.0869053276
119.10; 40.908864; 6237.730363687
120.12; 40.617372; 6279.0770961489
121.14; 40.612758; 6320.419130843
122.15; 40.777182; 6361.9285429443
123.17; 40.994009; 6403.6586747089
124.19; 41.184038; 6445.5822484581
125.21; 41.326994; 6487.6513449116
126.23; 41.461147; 6529.8570031568
127.24; 41.66121; 6572.2663169686
128.26; 42.001768; 6615.0223043629
129.28; 42.518331; 6658.3041307495
130.30; 43.179097; 6702.2585883713
131.32; 43.877452; 6746.9239406203
132.33; 44.449083; 6792.1711888467
133.35; 44.710205; 6837.6842485743
134.37; 44.506898; 6882.990349813
135.39; 43.761821; 6927.5379955142
136.41; 42.504657; 6970.8059023673
137.42; 40.876513; 7012.416428398
138.44; 39.105342; 7052.2239788933
139.46; 37.457301; 7090.3538949874
140.48; 36.175833; 7127.1793322004
141.50; 35.424186; 7163.2396254086
142.51; 35.246812; 7199.1193594846
143.53; 35.560515; 7235.3184296034
144.55; 36.178405; 7272.1464844726
145.57; 36.860724; 7309.6691108887
146.59; 37.379012; 7347.719331934
147.60; 37.576081; 7385.9701609574
148.62; 37.405268; 7424.0471097232
149.64; 36.938183; 7461.6485859008
150.66; 36.339173; 7498.6402961859
151.68; 35.814274; 7535.0976821556
152.69; 35.549681; 7571.2857237139
153.71; 35.657556; 7607.5835768772
154.73; 36.14444; 7644.3770570389
155.75; 36.910513; 7681.9503664954
156.77; 37.778633; 7720.4073851097
157.78; 38.543429; 7759.6429323515
158.80; 39.02529; 7799.3689936475
159.82; 39.113538; 7839.1848877793
160.84; 38.787242; 7878.6686260505
161.86; 38.109657; 7917.4626124098
162.87; 37.200519; 7955.33113556
163.89; 36.196774; 7992.1778898083
164.91; 35.214911; 8028.0251493704
165.93; 34.32618; 8062.9677193398
166.94; 33.550619; 8097.1208017411
167.96; 32.868888; 8130.5799113656
168.98; 32.244977; 8163.4039063846
170.00; 31.649832; 8195.6220698823
171.02; 31.076799; 8227.2569100095
172.03; 30.543943; 8258.3493263537
173.05; 30.0841; 8288.9736421512
174.07; 29.728542; 8319.236014704
175.09; 29.492566; 8349.2581738347
176.11; 29.370064; 8379.155631894
177.12; 29.339847; 8409.0223305788
178.14; 29.380921; 8438.9308405478
179.16; 29.489446; 8468.9498239101
180.18; 29.688709; 8499.1716485597
181.20; 30.025911; 8529.7367297881
182.21; 30.555036; 8560.8404374804
183.23; 31.311405; 8592.7140961852
184.25; 32.287958; 8625.5818440278
185.27; 33.423887; 8659.6059183154
186.29; 34.612305; 8694.8397514637
187.30; 35.726571; 8731.2078594209
188.32; 36.657304; 8768.5234134685
189.34; 37.347208; 8806.5412593047
190.36; 37.810632; 8845.0308510964
191.38; 38.129765; 8883.8453061318
192.39; 38.427659; 8922.9630045101
193.41; 38.826886; 8962.4870989377
194.43; 39.408069; 9002.6028128254
195.45; 40.182767; 9043.5071355528
196.47; 41.090016; 9085.334998536
197.48; 42.017286; 9128.1067827461
198.50; 42.837939; 9171.7139561451
199.52; 43.451754; 9215.9459667269
200.54; 43.814653; 9260.5473928659
201.56; 43.948287; 9305.284853049
202.57; 43.927703; 9350.0013589907
203.59; 43.852866; 9394.6416846149
204.61; 43.8147; 9439.2431586105
205.63; 43.866965; 9483.8978363206
206.65; 44.01215; 9528.7003054837
207.66; 44.204093; 9573.6981649802
208.68; 44.364666; 9618.8594805158
209.70; 44.408195; 9664.0651072374
210.72; 44.266315; 9709.1263060513
211.74; 43.907108; 9753.821847602
212.75; 43.344837; 9797.9450213714
213.77; 42.639084; 9841.3497686702
214.79; 41.884138; 9883.9860137329
215.81; 41.190919; 9925.9165918082
216.82; 40.664839; 9967.3116431069
217.84; 40.383976; 10008.420788291
218.86; 40.382488; 10049.528418289
219.88; 40.643787; 10090.902040105
220.90; 41.106154; 10132.746330837
221.91; 41.680142; 10175.174916754
222.93; 42.273317; 10218.207328903
223.95; 42.814855; 10261.791003772
224.97; 43.271978; 10305.840010144
225.99; 43.652648; 10350.276521682
227.00; 43.993932; 10395.060446283
228.02; 44.341056; 10440.197727441
229.04; 44.726016; 10485.726881282
230.06; 45.154935; 10531.692656956
231.08; 45.609569; 10578.121229681
232.09; 46.062051; 10625.010409955
233.11; 46.495779; 10672.341106927
234.13; 46.922093; 10720.105772569
235.15; 47.383911; 10768.340549514
236.17; 47.943281; 10817.144740868
237.18; 48.657475; 10866.675950475
238.20; 49.554418; 10917.120209852
239.22; 50.619786; 10968.648967156
240.24; 51.803979; 11021.383182664
241.26; 53.048815; 11075.384587588
242.27; 54.324449; 11130.684532761
243.29; 55.660983; 11187.3450118
244.31; 57.159193; 11245.530603879
245.33; 58.971424; 11305.560968769
246.35; 61.25468; 11367.915590253
247.36; 64.109159; 11433.175947425
248.38; 67.52254; 11501.910979101
249.40; 71.34041; 11574.532438244
250.42; 75.275936; 11651.160092913
251.44; 78.959826; 11731.537788574
252.45; 82.018868; 11815.02945733
253.47; 84.16219; 11900.702935202
254.49; 85.251773; 11987.485561691
255.51; 85.338224; 12074.356191063
256.53; 84.652569; 12160.528852905
257.54; 83.556678; 12245.585945085
258.56; 82.465244; 12329.532005279
259.58; 81.758422; 12412.758550944
260.60; 81.705101; 12495.930817972
261.61; 82.412868; 12579.823561147
262.63; 83.813563; 12665.142151438
263.65; 85.685106; 12752.365891707
264.67; 87.702853; 12841.643611173
265.69; 89.50851; 12932.759412106
266.70; 90.782248; 13025.171823585
267.72; 91.304133; 13118.115490812
268.74; 90.993919; 13210.743373377
269.76; 89.922871; 13302.28097529
270.78; 88.296708; 13392.163214086
271.79; 86.414106; 13480.129044856
272.81; 84.609534; 13566.257899103
273.83; 83.191911; 13650.94367422
274.85; 82.391086; 13734.814244462
275.87; 82.322435; 13818.614931247
276.88; 82.976032; 13903.080951035
277.90; 84.231556; 13988.825039952
278.92; 85.89429; 14076.261720273
279.94; 87.742514; 14165.579813188
280.96; 89.573719; 14256.761994104
281.97; 91.237389; 14349.637719085
282.99; 92.64604; 14443.947390441
284.01; 93.763047; 14539.394126713
285.03; 94.573662; 14635.666033843
286.05; 95.052005; 14732.42487357
287.06; 95.139078; 14829.27234908
288.08; 94.743616; 14925.717262195
289.10; 93.769325; 15021.170389024
290.12; 92.161193; 15114.986506337
291.14; 89.95424; 15206.55604098
292.15; 87.304066; 15295.427812453
293.17; 84.482326; 15381.427174985
294.19; 81.831303; 15464.727910733
295.21; 79.686461; 15545.845288932
296.23; 78.288983; 15625.540094864
297.24; 77.716437; 15704.652074574
298.26; 77.855898; 15783.906018613
299.28; 78.430838; 15863.745226796
300.30; 79.075256; 15944.240424691
301.32; 79.432251; 16025.099028775
302.33; 79.245855; 16105.767889396
303.35; 78.417495; 16185.593515902
304.37; 77.011204; 16263.987598186
305.39; 75.209664; 16340.547790793
306.41; 73.239795; 16415.102741262
307.42; 71.295608; 16487.678593411
308.44; 69.484705; 16558.411024708
309.46; 67.814046; 16627.442797696
310.48; 66.215212; 16694.847025863
311.49; 64.595298; 16760.602252107
312.51; 62.89193; 16824.623522682
313.53; 61.111706; 16886.832602601
314.55; 59.339531; 16947.237684499
315.57; 57.71772; 17005.991832693
316.58; 56.404085; 17063.408757293
317.60; 55.523843; 17119.929633188
318.62; 55.130145; 17176.049741964
319.64; 55.183464; 17232.224126865
320.66; 55.553529; 17288.775221915
321.67; 56.041606; 17345.823158659
322.69; 56.417076; 17403.253307494
323.71; 56.460686; 17460.727849103
324.73; 56.006714; 17517.740267276
325.75; 54.976715; 17573.704190657
326.76; 53.398235; 17628.061289954
327.78; 51.403396; 17680.387729236
328.80; 49.205191; 17730.476490832
329.82; 47.054079; 17778.37551324
330.84; 45.183097; 17824.369955877
331.85; 43.754474; 17868.910122258
332.87; 42.822417; 17912.501494577
333.89; 42.323805; 17955.58530125
334.91; 42.101214; 17998.442520186
335.93; 41.952857; 18041.148718246
336.94; 41.695083; 18083.592513249
337.96; 41.218358; 18125.551022593
338.98; 40.519194; 18166.797814004
340.00; 39.698089; 18207.208755434
341.02; 38.924641; 18246.832360667
342.03; 38.381768; 18285.903343781
343.05; 38.207413; 18324.796841144
344.07; 38.45224; 18363.939561756
345.09; 39.065539; 18403.706594778
346.11; 39.911596; 18444.334876868
347.12; 40.808712; 18485.876384397
348.14; 41.57662; 18528.199589154
349.16; 42.07712; 18571.032281686
350.18; 42.237257; 18614.02798646
351.20; 42.051961; 18656.8350678
352.21; 41.570628; 18699.152173732
353.23; 40.876681; 18740.762870961
354.25; 40.069338; 18781.55172822
355.27; 39.253168; 18821.509759393
356.28; 38.535467; 18860.737202124
357.30; 38.0269; 18899.446945897
358.32; 37.839092; 18937.965508475
359.34; 38.074693; 18976.723902798
360.36; 38.809811; 19016.230615551
361.37; 40.073427; 19057.023634886
362.39; 41.831316; 19099.606109375
363.41; 43.981596; 19144.37747647
364.43; 46.365496; 19191.575550324
365.45; 48.791723; 19241.243419252
366.46; 51.068187; 19293.228629564
367.48; 53.032594; 19347.213521527
368.50; 54.574504; 19402.768012076
369.52; 55.644963; 19459.412182746
370.54; 56.254225; 19516.676556561
371.55; 56.461353; 19574.151777733
372.57; 56.360303; 19631.524134196
373.59; 56.065727; 19688.596624895
374.61; 55.699166; 19745.295971892
375.63; 55.374467; 19801.664789773
376.64; 55.181381; 19857.837054717
377.66; 55.168481; 19913.996187611
378.68; 55.329644; 19970.319377732
379.70; 55.600332; 20026.918116037
380.72; 55.869063; 20083.790411278
381.73; 56.005359; 20140.801450236
382.75; 55.899138; 20197.704360589
383.77; 55.500655; 20254.201632637
384.79; 54.847394; 20310.033912462
385.81; 54.06662; 20365.071398528
386.82; 53.349515; 20419.378903091
387.84; 52.902539; 20473.231404517
388.86; 52.890397; 20527.071546015
389.88; 53.389097; 20581.419343213
390.90; 54.365072; 20636.760640234
391.91; 55.687793; 20693.448410178
392.93; 57.171595; 20751.646627288
393.95; 58.63186; 20811.331331065
394.97; 59.935382; 20872.342963781
395.99; 61.026823; 20934.46563654
397.00; 61.922082; 20997.499643572
398.02; 62.672015; 21061.297050118
399.04; 63.311613; 21125.745540504
400.06; 63.815967; 21190.707441228
401.07; 64.082686; 21255.940850499
402.09; 63.951147; 21321.040358222
403.11; 63.255156; 21385.431377767
404.13; 61.892306; 21448.435074568
405.15; 59.885315; 21509.395740779
406.16; 57.411293; 21567.837959873
407.18; 54.784286; 21623.605999473
408.20; 52.391758; 21676.938548823
409.22; 50.601693; 21728.448888805
410.24; 49.668024; 21779.008793557
411.25; 49.664061; 21829.564664219
412.27; 50.465432; 21880.936296227
413.29; 51.788355; 21933.654606606
414.31; 53.271183; 21987.88237202
415.33; 54.573359; 22043.435696322
416.34; 55.461034; 22099.892635398
417.36; 55.854313; 22156.749915559
418.38; 55.825094; 22213.57745207
419.40; 55.551492; 22270.126473875
420.42; 55.248584; 22326.367147839
421.43; 55.100825; 22382.457409979
422.45; 55.217521; 22438.666463377
423.47; 55.621424; 22495.286673117
424.49; 56.267057; 22552.564109486
425.51; 57.075171; 22610.664170352
426.52; 57.966673; 22669.671741888
427.54; 58.883685; 22729.612792677
428.56; 59.794201; 22790.480708894
429.58; 60.685433; 22852.255860624
430.60; 61.555219; 22914.916417532
431.61; 62.409133; 22978.446222054
432.63; 63.264835; 23042.847093896
433.65; 64.158537; 23108.157715813
434.67; 65.145293; 23174.472813039
435.69; 66.287276; 23241.950399582
436.70; 67.631213; 23310.796055961
437.72; 69.183935; 23381.22231669
438.74; 70.898982; 23453.394421028
439.76; 72.684488; 23527.384093032
440.78; 74.433651; 23603.154337589
441.79; 76.067886; 23680.588162884
442.81; 77.574951; 23759.556115197
443.83; 79.024455; 23839.999600039
444.85; 80.552087; 23921.998148819
445.87; 82.318101; 24005.794423881
446.88; 84.458376; 24091.769405973
447.90; 87.051125; 24180.38369448
448.92; 90.115863; 24272.117754172
449.94; 93.645825; 24367.445162824
450.95; 97.657826; 24466.856615858
451.97; 102.23337; 24570.925778157
452.99; 107.52778; 24680.384422635
454.01; 113.7401; 24796.166939514
455.03; 121.05857; 24919.399334858
456.04; 129.61315; 25051.339924526
457.06; 139.46814; 25193.312469421
458.08; 150.67034; 25346.688378104
459.10; 163.33845; 25512.959867791
460.12; 177.75017; 25693.901866197
461.13; 194.37223; 25891.764410728
462.15; 213.79353; 26109.397000256
463.17; 236.56233; 26350.207245138
464.19; 262.97849; 26617.90800309
465.21; 292.92785; 26916.095909079
466.22; 325.84706; 27247.794151698
467.24; 360.86543; 27615.139587155
468.26; 397.09619; 28019.36637712
469.28; 433.97295; 28461.132112212
470.30; 471.48243; 28941.080877832
471.31; 510.15956; 29460.401294449
472.33; 550.78913; 30021.080865359
473.35; 593.8763; 30625.621309464
474.37; 639.06029; 31276.157109072
475.39; 684.70289; 31973.155106426
476.40; 727.85276; 32714.077809134
477.42; 764.67091; 33492.479794185
478.44; 791.2388; 34297.926753734
479.46; 804.5215; 35116.894927894
480.48; 803.18432; 35934.501906622
481.49; 787.99798; 36736.649845405
482.51; 761.70366; 37512.031304277
483.53; 728.39519; 38253.506180821
484.55; 692.63718; 38958.580942946
485.57; 658.6108; 39629.018315922
486.58; 629.53572; 40269.858518142
487.60; 607.47959; 40888.246530485
488.62; 593.49824; 41492.402133005
489.64; 587.92638; 42090.885820238
490.66; 590.61291; 42692.104280953
491.67; 600.97522; 43303.871124401
492.69; 617.8884; 43932.854851339
493.71; 639.55503; 44583.894277929
494.73; 663.54939; 45259.358920108
495.74; 687.16648; 45958.864745454
496.76; 708.05722; 46679.636436434
497.78; 724.96554; 47417.620076577
498.80; 738.28664; 48169.164016901
499.82; 750.19104; 48932.826122161
500.83; 764.20793; 49710.7568217
501.85; 784.37024; 50509.211874182
502.87; 814.20138; 51338.033741741
503.89; 855.88626; 52209.289016795
504.91; 909.885; 53135.512679801
505.92; 975.0558; 54128.07740555
506.94; 1049.1424; 55196.059051438
507.96; 1129.3533; 56345.691959787
508.98; 1212.7771; 57580.246719433
510.00; 1296.527; 58900.055236594
511.01; 1377.7138; 60302.508416789
512.03; 1453.4918; 61782.100327491
513.05; 1521.4176; 63330.837808491
514.07; 1580.1932; 64939.406320781
515.09; 1630.5964; 66599.283108303
516.10; 1676.1715; 68305.553353991
517.12; 1723.1893; 70059.685654006
518.14; 1779.5606; 71871.201523872
519.16; 1852.7622; 73757.233512876
520.18; 1947.2707; 75739.4710203
521.19; 2062.3126; 77838.81622379
522.21; 2190.7767; 80068.93231914
523.23; 2319.8396; 82430.428936193
524.25; 2433.3226; 84907.446305959
525.27; 2515.2041; 87467.815527663
526.28; 2553.2951; 90066.959718993
527.30; 2541.9953; 92654.601275392
528.32; 2483.3407; 95182.534953409
529.34; 2386.1073; 97611.489181825
530.36; 2263.3605; 99915.492460615
531.37; 2129.2942; 102083.02207949
532.39; 1996.345; 104115.21518435
533.41; 1873.3616; 106022.21650056
534.43; 1765.1644; 107819.07768314
535.45; 1673.3281; 109522.45349158
536.46; 1597.6509; 111148.79320292
537.48; 1537.6484; 112714.05288001
538.50; 1493.541; 114234.41318807
539.52; 1466.4969; 115727.24375309
540.54; 1458.2044; 117211.6328955
541.55; 1470.0696; 118708.10028456
542.57; 1502.3903; 120237.4687428
543.59; 1553.7775; 121819.14718323
544.61; 1620.9454; 123469.1996855
545.62; 1698.8545; 125198.56023706
546.64; 1781.1226; 127011.66618998
547.66; 1860.6195; 128905.69654682
548.68; 1930.1898; 130870.54642537
549.70; 1983.4668; 132889.63004314
550.71; 2015.7111; 134941.53700173
551.73; 2024.5452; 137002.43666724
552.75; 2010.4043; 139048.94151385
553.77; 1976.526; 141060.95972083
554.79; 1928.3853; 143023.97271239
555.80; 1872.6319; 144930.2311285
556.82; 1815.7491; 146778.58537221
557.84; 1762.76; 148572.99897874
558.86; 1716.3109; 150320.12936708
559.88; 1676.3567; 152026.58817816
560.89; 1640.4921; 153696.53835788
561.91; 1604.7864; 155330.14161443
562.93; 1564.858; 156923.09955889
563.95; 1516.8965; 158467.23474966
564.97; 1458.4064; 159951.8295626
565.98; 1388.5721; 161365.33604704
567.00; 1308.26; 162697.08827858
568.02; 1219.7548; 163938.74607952
569.04; 1126.3446; 165085.31623652
570.06; 1031.8454; 166135.69028717
571.07; 940.12179; 167092.69370555
572.09; 854.63486; 167962.67511455
573.11; 778.05441; 168754.70093344
574.13; 711.98793; 169479.47392387
575.15; 656.88388; 170148.1533634
576.16; 612.14546; 170771.29103116
577.18; 576.43837; 171358.0804209
578.20; 548.1124; 171916.03519659
579.22; 525.61233; 172451.08586857
580.24; 507.75225; 172967.9557438
581.25; 493.77743; 173470.59986121
582.27; 483.22089; 173962.49787308
583.29; 475.64411; 174446.68305226
584.31; 470.39814; 174925.52805841
585.33; 466.53067; 175400.43615334
586.34; 462.90206; 175871.65047073
587.36; 458.48331; 176338.36670026
588.38; 452.73021; 176799.22652154
589.40; 445.88916; 177253.12244725
590.41; 439.1074; 177700.114834
591.43; 434.28194; 178142.19510754
592.45; 433.6644; 178583.64675825
593.47; 439.31315; 179030.84858739
594.49; 452.52723; 179491.50177778
595.50; 473.40134; 179973.40391778
596.52; 500.6111; 180483.00441898
597.54; 531.48662; 181024.03486406
598.56; 562.37308; 181596.50639218
599.58; 589.21952; 182196.30644045
600.59; 608.28903; 182815.51842566
601.61; 616.85109; 183443.4462125
602.63; 613.70768; 184068.17414398
603.65; 599.42645; 184678.36440111
604.67; 576.20976; 185264.92107392
605.68; 547.41154; 185822.16239598
606.70; 516.80537; 186348.24795974
607.72; 487.78053; 186844.78749219
608.74; 462.6702; 187315.76578874
609.76; 442.38377; 187766.09337305
610.77; 426.42779; 188200.17846177
611.79; 413.28394; 188620.8836814
612.81; 401.00664; 189029.09114046
613.83; 387.84444; 189423.90004171
614.85; 372.69834; 189803.29086936
615.86; 355.30211; 190164.97308731
616.88; 336.11522; 190507.12387304
617.90; 316.01821; 190828.81677264
618.92; 295.95603; 191130.0872405
619.94; 276.66945; 191411.72480165
620.95; 258.59632; 191674.96469556
621.97; 241.94069; 191921.24987361
622.99; 226.83561; 192152.15873361
624.01; 213.49359; 192369.48599109
625.03; 202.25674; 192575.37462291
626.04; 193.5151; 192772.36464608
627.06; 187.52854; 192963.26060272
628.08; 184.23563; 193150.80451953
629.10; 183.14204; 193337.23521552
630.12; 183.34903; 193523.8766184
631.13; 183.72566; 193710.90141404
632.15; 183.171; 193897.36159057
633.17; 180.87827; 194081.48786853
634.19; 176.51431; 194261.17181945
635.21; 170.26167; 194434.49085506
636.22; 162.72158; 194600.13440445
637.24; 154.72261; 194757.63534087
638.26; 147.10544; 194907.38233588
639.28; 140.55115; 195050.45734408
640.29; 135.49339; 195188.38376874
641.31; 132.11839; 195322.87458537
642.33; 130.42473; 195455.64133195
643.35; 130.30048; 195588.28160023
644.37; 131.58054; 195722.22491278
645.38; 134.06727; 195858.69961285
646.40; 137.5216; 195998.69066495
647.42; 141.6485; 196142.88273013
648.44; 146.10382; 196291.61011369
649.46; 150.53718; 196444.85046501
650.47; 154.6661; 196602.29387673
651.49; 158.35695; 196763.49441972
652.51; 161.67973; 196928.07740582
653.53; 164.90915; 197095.94780163
654.55; 168.4638; 197267.43668287
655.56; 172.79987; 197443.33949388
656.58; 178.29666; 197624.83779544
657.60; 185.17831; 197813.34132753
658.62; 193.50512; 198010.32119416
659.64; 203.24119; 198217.21195586
660.65; 214.37247; 198435.43388031
661.67; 227.02262; 198666.53311
662.69; 241.50583; 198912.37562604
663.71; 258.27187; 199175.28524183
664.73; 277.73557; 199458.00806397
665.74; 300.02992; 199763.42557246
666.76; 324.76084; 200094.01809615
667.78; 350.85755; 200451.17594306
668.80; 376.59517; 200834.53357075
669.82; 399.81907; 201241.53213229
670.83; 418.33674; 201667.38088078
671.85; 430.38406; 202105.49328312
672.87; 435.04063; 202548.3458708
673.89; 432.47506; 202988.5868241
674.91; 423.94718; 203420.14676082
675.92; 411.56422; 203839.10137385
676.94; 397.85997; 204244.10565346
677.96; 385.31416; 204636.33883963
678.98; 375.93839; 205019.02790274
680.00; 371.02296; 205396.71327026
681.01; 371.07847; 205774.45513905
682.03; 375.94118; 206157.14704109
683.05; 384.96516; 206549.02496613
684.07; 397.21331; 206953.37097681
685.08; 411.58522; 207372.34697475
686.10; 426.86843; 207806.8806149
687.12; 441.74897; 208256.56200182
688.14; 454.84519; 208719.57477337
689.16; 464.82195; 209192.74346196
690.17; 470.60361; 209671.79763377
691.19; 471.64877; 210151.91572839
692.21; 468.2024; 210628.52556614
693.23; 461.42297; 211098.23423584
694.25; 453.30442; 211559.67857534
695.26; 446.37064; 212014.06462741
696.28; 443.19352; 212465.21650502
697.30; 445.84877; 212919.07131382
698.32; 455.45271; 213382.70252081
699.34; 471.90653; 213863.08300908
700.35; 493.91721; 214365.86941116
701.37; 519.28497; 214894.47910058
702.39; 545.37303; 215449.64531516
703.41; 569.62954; 216029.50361055
704.43; 590.02823; 216630.12689152
705.44; 605.33075; 217246.32747279
706.46; 615.13498; 217872.50834271
707.48; 619.73792; 218503.37479825
708.50; 619.88741; 219134.3934333
709.52; 616.51308; 219761.97714106
710.53; 610.51103; 220383.45102684
711.55; 602.62184; 220996.89405902
712.57; 593.40049; 221600.95015137
713.59; 583.24712; 222194.67055317
714.61; 572.45604; 222777.40610345
715.62; 561.24808; 223348.73243185
716.64; 549.77119; 223908.37578334
717.66; 538.07562; 224456.11354138
718.68; 526.08392; 224991.64426554
719.70; 513.57868; 225514.44519897
720.71; 500.22239; 226023.65000773
721.73; 485.61062; 226517.98066458
722.75; 469.3475; 226995.75616411
723.77; 451.12624; 227454.98320693
724.79; 430.79838; 227893.51736412
725.80; 408.4212; 228309.27252029
726.82; 384.2796; 228700.4525664
727.84; 358.88289; 229065.77985689
728.86; 332.93776; 229404.69613416
729.88; 307.29698; 229717.51119733
730.89; 282.88252; 230005.47339151
731.91; 260.58498; 230270.73765589
732.93; 241.14782; 230516.21573131
733.95; 225.05434; 230745.3113416
734.96; 212.44238; 230961.56852137
735.98; 203.0719; 231168.28695078
737.00; 196.36184; 231368.17482618
738.02; 191.49578; 231563.10926425
739.04; 187.57579; 231754.05332666
740.05; 183.78792; 231941.14150104
741.07; 179.53716; 232123.90257855
742.09; 174.51788; 232301.55425151
743.11; 168.70577; 232473.28944162
744.13; 162.28213; 232638.48564499
745.14; 155.52314; 232796.80148559
746.16; 148.69546; 232948.16704713
747.18; 141.99366; 233092.71046484
748.20; 135.53493; 233230.67917037
749.22; 129.40164; 233362.40446059
750.23; 123.70172; 233488.32746996
751.25; 118.60932; 233609.06663577
752.27; 114.35801; 233725.47815992
753.29; 111.18035; 233838.65496063
754.31; 109.21392; 233949.83002188
755.32; 108.41267; 234060.18943693
756.34; 108.50494; 234170.64278533
757.36; 109.0251; 234281.6256358
758.38; 109.41779; 234393.00822591
759.40; 109.18516; 234504.15400267
760.41; 108.02821; 234614.12205971
761.43; 105.93283; 234721.95710474
762.45; 103.1691; 234826.9787928
763.47; 100.20333; 234928.98145525
764.49; 97.552671; 235028.28586523
765.50; 95.631933; 235125.63504597
766.52; 94.642746; 235221.9772775
767.54; 94.537876; 235318.21275596
768.56; 95.06498; 235414.98480301
769.58; 95.866431; 235512.57269302
770.59; 96.595093; 235610.90232934
771.61; 97.005694; 235709.64994037
772.63; 96.996207; 235808.38789337
773.65; 96.5959; 235906.71835145
774.67; 95.916935; 236004.35765264
775.68; 95.096561; 236101.16184856
776.70; 94.254462; 236197.10882334
777.72; 93.477429; 236292.26481272
778.74; 92.828175; 236386.75988882
779.75; 92.36402; 236480.78247523
780.77; 92.149057; 236574.58623896
781.79; 92.249988; 236668.492746
782.81; 92.717083; 236762.87473565
783.83; 93.561429; 236858.1162326
784.84; 94.74287; 236954.56038548
785.86; 96.178297; 237052.46574167
786.88; 97.769615; 237151.99099109
787.90; 99.440017; 237253.21663772
788.92; 101.16147; 237356.19464607
789.93; 102.95857; 237461.00202437
790.95; 104.88366; 237567.76905957
791.97; 106.97098; 237676.66090398
792.99; 109.18847; 237787.81005609
794.01; 111.40908; 237901.21968997
795.02; 113.41818; 238016.67450305
796.04; 114.96049; 238133.69931871
797.06; 115.81455; 238251.59352828
798.08; 115.87086; 238369.54506277
799.10; 115.18585; 238486.79928881
800.11; 113.99002; 238602.83620969
801.13; 112.64301; 238717.50193241
802.15; 111.54598; 238831.05092748
803.17; 111.03655; 238944.08134898
804.19; 111.29855; 239057.37846622
805.20; 112.31508; 239171.71037511
806.22; 113.88062; 239287.63593335
807.24; 115.66895; 239405.38192989
808.26; 117.33667; 239524.82559336
809.28; 118.63043; 239645.58625532
810.29; 119.46507; 239767.19654366
811.31; 119.94892; 239889.29937308
812.33; 120.34909; 240011.80955264
813.35; 121.00749; 240134.98995903
814.37; 122.23315; 240259.41802784
815.38; 124.20229; 240385.85060387
816.40; 126.89505; 240515.02429203
817.42; 130.08603; 240647.44625956
818.44; 133.39114; 240783.23268021
819.46; 136.3578; 240922.03904096
820.47; 138.57526; 241063.10267746
821.49; 139.77714; 241205.38977431
822.51; 139.91147; 241347.81360878
823.53; 139.16122; 241489.47372282
824.55; 137.91031; 241629.86047158
825.56; 136.66246; 241768.97695393
826.58; 135.93121; 241907.34906301
827.60; 136.12686; 242045.92033704
828.62; 137.4668; 242185.85560989
829.63; 139.9311; 242328.29942845
830.65; 143.27358; 242474.14575005
831.67; 147.08415; 242623.87107036
832.69; 150.88409; 242777.46455906
833.71; 154.22735; 242934.46135011
834.72; 156.78093; 243094.05757445
835.74; 158.36591; 243255.26723739
836.76; 158.95614; 243417.07773232
837.78; 158.64639; 243578.57290882
838.80; 157.611; 243739.01410561
839.81; 156.0736; 243897.89029786
840.83; 154.29768; 244054.95867783
841.85; 152.59289; 244210.29165823
842.87; 151.3192; 244364.32807852
843.89; 150.86758; 244517.90476033
844.90; 151.60462; 244672.23172152
845.92; 153.78633; 244828.7795714
846.94; 157.46518; 244989.07233009
847.96; 162.42629; 245154.41528707
848.98; 168.18571; 245325.62108722
849.99; 174.06617; 245502.8129359
851.01; 179.33929; 245685.37259066
852.03; 183.3981; 245872.06393741
853.05; 185.90974; 246061.31203494
854.07; 186.90187; 246251.57007427
855.08; 186.75567; 246441.67928257
856.10; 186.10742; 246631.12860667
857.12; 185.68774; 246820.1507119
858.14; 186.14445; 247009.63772516
859.16; 187.89704; 247200.9088037
860.17; 191.05813; 247395.39773291
861.19; 195.43659; 247594.34375106
862.21; 200.61524; 247798.56141152
863.23; 206.07839; 248008.34032291
864.25; 211.35539; 248223.49099437
865.26; 216.14477; 248443.51704321
866.28; 220.38925; 248667.86378687
867.30; 224.28317; 248896.1743787
868.32; 228.20916; 249128.48145686
869.34; 232.61861; 249365.27715915
870.35; 237.88745; 249607.43632223
871.37; 244.1895; 249856.01069953
872.39; 251.42919; 250111.95476626
873.41; 259.26154; 250375.87183137
874.42; 267.20044; 250647.87034519
875.44; 274.78509; 250927.58971266
876.46; 281.75027; 251214.39932446
877.48; 288.13832; 251507.71170347
878.50; 294.3075; 251807.30403892
879.51; 300.82616; 252113.53208509
880.53; 308.28659; 252427.35452579
881.55; 317.10696; 252750.15573136
882.57; 327.40173; 253083.43656634
883.59; 338.9821; 253428.50571146
884.60; 351.50379; 253786.32139794
885.62; 364.72317; 254157.59384334
886.64; 378.77498; 254543.17043296
887.66; 394.36356; 254944.61552343
888.68; 412.77389; 255364.80153153
889.69; 435.65856; 255808.28314516
890.71; 464.62831; 256281.25471154
891.73; 500.7476; 256790.99416515
892.75; 544.08987; 257344.85417822
893.77; 593.51973; 257949.03165428
894.78; 646.83142; 258607.47813053
895.80; 701.28461; 259321.35559677
896.82; 754.45761; 260089.36088512
897.84; 805.21439; 260909.03438613
898.86; 854.49431; 261778.87271749
899.87; 905.62136; 262700.75618618
900.89; 963.91511; 263681.98017259
901.91; 1035.5644; 264736.1400178
902.93; 1125.9584; 265882.31709411
903.95; 1237.8897; 267142.43542194
904.96; 1370.1691; 268537.20840775
905.98; 1517.1627; 270081.61454163
907.00; 1669.5555; 271781.15004694
908.02; 1816.3028; 273630.06789668
909.04; 1947.3507; 275612.38684448
910.05; 2056.4151; 277705.72869854
911.07; 2143.0066; 279887.21692059
912.09; 2213.0427; 282139.99884627
913.11; 2277.7611; 284458.66134588
914.13; 2351.1288; 286852.00904865
915.14; 2446.3848; 289342.32321202
916.16; 2572.6105; 291961.12973653
917.18; 2732.2136; 294742.4053065
918.20; 2919.9417; 297714.77995666
919.22; 3123.6193; 300894.48966396
920.23; 3326.3577; 304280.57827286
921.25; 3509.6668; 307853.26760377
922.27; 3656.779; 311575.71080302
923.29; 3755.5666; 315398.7155641
924.30; 3800.6315; 319267.5944272
925.32; 3794.3596; 323130.08880654
926.34; 3746.8892; 326944.26035361
927.36; 3675.0119; 330685.26386505
928.38; 3600.0567; 334349.96626795
929.39; 3544.864; 337958.48484376
930.41; 3530.0955; 341551.96971323
931.43; 3570.3513; 345186.43327904
932.45; 3670.7917; 348923.14082098
933.47; 3825.0811; 352816.90829241
934.48; 4015.3674; 356904.37900676
935.50; 4214.6394; 361194.70005381
936.52; 4391.2322; 365664.78491623
937.54; 4514.634; 370260.48753601
938.56; 4561.2992; 374903.6933332
939.57; 4519.0612; 379503.90259666
940.59; 4389.0467; 383971.76272615
941.61; 4184.6427; 388231.54841711
942.63; 3927.8646; 392229.94513195
943.65; 3644.1722; 395939.55513478
944.66; 3357.1468; 399356.98567592
945.68; 3084.3814; 402496.75284655
946.70; 2835.4711; 405383.14010217
947.72; 2612.3101; 408042.35910342
948.74; 2411.2261; 410496.88318857
949.75; 2226.0321; 412762.8877899
950.77; 2050.9675; 414850.68425022
951.79; 1882.7183; 416767.21027344
952.81; 1721.1393; 418519.25578649
953.83; 1568.7682; 420116.19413835
954.84; 1429.5658; 421571.43046135
955.86; 1307.448; 422902.35608812
956.88; 1205.0997; 424129.09558823
957.90; 1123.3451; 425272.61239077
958.92; 1061.1027; 426352.76912314
959.93; 1015.7728; 427386.78198119
960.95; 983.82537; 428388.27375081
961.97; 961.38338; 429366.92054882
962.99; 944.67921; 430328.56322143
964.01; 930.35426; 431275.6237161
965.02; 915.63435; 432207.69997639
966.04; 898.43485; 433122.26788888
967.06; 877.43856; 434015.46248349
968.08; 852.16344; 434882.92809195
969.09; 823.01206; 435720.71885299
970.11; 791.27643; 436526.20410948
971.13; 759.06184; 437298.89630581
972.15; 729.09317; 438041.0816861
973.17; 704.38079; 438758.11093471
974.18; 687.75705; 439458.21793071
975.20; 681.34607; 440151.79883217
976.22; 686.08635; 440850.20513373
977.24; 701.45946; 441564.26059582
978.26; 725.56213; 442302.85153519
979.27; 755.5777; 443071.9970285
980.29; 788.57107; 443874.72835129
981.31; 822.39249; 444711.88842023
982.33; 856.3899; 445583.65638539
983.35; 891.64806; 446491.3156358
984.36; 930.60926; 447438.63570702
985.38; 976.14928; 448432.3135511
986.40; 1030.4045; 449481.22086563
987.42; 1093.7796; 450594.64126171
988.44; 1164.543; 451780.09575698
989.45; 1239.2318; 453041.58026059
990.47; 1313.7951; 454378.96697982
991.49; 1385.1153; 455788.95459364
992.51; 1452.3727; 457267.40734636
993.53; 1517.7337; 458812.39477387
994.54; 1586.0539; 460426.92924664
995.56; 1663.6211; 462120.42375583
996.58; 1756.3016; 463908.26296302
997.60; 1867.6786; 465809.47920185
998.62; 1997.8011; 467843.1545456
999.63; 2142.9868; 470024.62267804
1000.65; 2296.8056; 472362.67163189
1001.67; 2452.0037; 474858.70563458
1002.69; 2602.8338; 477508.27808775
1003.71; 2747.1036; 480304.71101869
1004.72; 2887.3049; 483243.86284715
1005.74; 3030.4015; 486328.68083481
1006.76; 3186.2152; 489572.1104051
1007.78; 3364.7503; 492997.28106253
1008.80; 3573.1532; 496634.59678401
1009.81; 3813.2017; 500516.27158872
1010.83; 4080.188; 504669.72685875
1011.85; 4363.7412; 509111.82704645
1012.87; 4650.5994; 513845.93653835
1013.89; 4928.6867; 518863.12688494
1014.90; 5191.3043; 524147.65066519
1015.92; 5440.0133; 529685.34947577
1016.94; 5685.0241; 535472.45868112
1017.96; 5942.628; 541521.79755738
1018.97; 6230.2215; 547863.89424942
1019.99; 6560.4525; 554542.15175601
1021.01; 6936.5687; 561603.27938936
1022.03; 7350.8852; 569086.16335966
1023.05; 7787.3457; 577013.34528735
1024.06; 8227.697; 585388.78575826
1025.08; 8659.3055; 594203.58511574
1026.10; 9081.7178; 603448.38192289
1027.12; 9509.1318; 613128.26777677
1028.14; 9967.1231; 623274.36901742
1029.15; 10483.925; 633946.55230454
1030.17; 11078.65; 645224.14038679
1031.19; 11750.274; 657185.41213824
1032.21; 12471.371; 669880.72969825
1033.23; 13189.361; 683306.92974936
1034.24; 13835.664; 697391.03860261
1035.26; 14340.568; 711989.11774947
1036.28; 14649.584; 726901.76240692
1037.30; 14736.473; 741902.85575021
1038.32; 14609.094; 756774.28312498
1039.33; 14306.567; 771337.75092715
1040.35; 13888.974; 785476.12661967
1041.37; 13423.143; 799140.30697285
1042.39; 12969.02; 812342.20985226
1043.41; 12570.503; 825138.43995194
1044.42; 12252.71; 837611.16986185
1045.44; 12025.155; 849852.25871924
1046.46; 11888.281; 861954.01618165
1047.48; 11839.867; 874006.48988352
1048.50; 11878.384; 886098.17264859
1049.51; 12002.068; 898315.75969231
1050.53; 12204.55; 910739.46482443
1051.55; 12469.596; 923432.97503855
1052.57; 12768.007; 936430.25537487
1053.59; 13059.015; 949723.76944723
1054.60; 13296.701; 963259.23777833
1055.62; 13439.94; 976940.51693558
1056.64; 13462.807; 990645.07314251
1057.66; 13361.968; 1004246.980206
1058.68; 13158.431; 1017641.6955925
1059.69; 12892.825; 1030766.0355602
1060.71; 12615.504; 1043608.074372
1061.73; 12374.381; 1056204.6606127
1062.75; 12204.031; 1068627.8378955
1063.76; 12119.019; 1080964.4762373
1064.78; 12112.949; 1093294.9352194
1065.80; 12162.899; 1105676.2415709
1066.82; 12237.387; 1118133.3738655
1067.84; 12305.249; 1130659.585993
1068.85; 12342.971; 1143224.1978332
1069.87; 12338.901; 1155784.6665933
1070.89; 12293.903; 1168299.3293086
1071.91; 12219.074; 1180737.8190312
1072.93; 12131.671; 1193087.3368572
1073.94; 12050.456; 1205354.1808076
1074.96; 11991.324; 1217560.8310156
1075.98; 11963.727; 1229739.3887757
1077.00; 11968.123; 1241922.4210347
1078.02; 11994.696; 1254132.5044472
1079.03; 12023.707; 1266372.119353
1080.05; 12027.823; 1278615.9236506
1081.07; 11976.576; 1290807.5608655
1082.09; 11842.496; 1302862.7110424
1083.11; 11607.779; 1314678.9287583
1084.12; 11269.795; 1326151.0936862
1085.14; 10843.697; 1337189.5091803
1086.16; 10360.913; 1347736.4712333
1087.18; 9863.4579; 1357777.0457548
1088.20; 9395.2822; 1367341.0375642
1089.21; 8992.9072; 1376495.42899
1090.23; 8677.9515; 1385329.2091786
1091.25; 8453.6211; 1393934.6306305
1092.27; 8306.0148; 1402389.7952492
1093.29; 8209.5899; 1410746.8034674
1094.30; 8134.8827; 1419027.7630288
1095.32; 8056.0374; 1427228.4615167
1096.34; 7956.0106; 1435327.336982
1097.36; 7828.3285; 1443296.237564
1098.38; 7675.5483; 1451109.614511
1099.39; 7505.6177; 1458750.0094417
1100.41; 7327.7802; 1466209.3734368
1101.43; 7149.4431; 1473487.197976
1102.45; 6974.7088; 1480587.1505573
1103.47; 6804.4388; 1487513.7756406
1104.48; 6637.1501; 1494270.1080196
1105.50; 6469.9378; 1500856.2255425
1106.52; 6298.9455; 1507268.2802971
1107.54; 6119.4231; 1513497.5889419
1108.56; 5925.8184; 1519529.8164059
1109.57; 5712.415; 1525344.8083898
1110.59; 5474.7245; 1530917.8417031
1111.61; 5211.3439; 1536222.7649182
1112.63; 4925.5634; 1541236.7758736
1113.64; 4625.9135; 1545945.7561807
1114.66; 4325.1498; 1550348.5720688
1115.68; 4037.7738; 1554458.8515549
1116.70; 3776.813; 1558303.4842537
1117.72; 3550.9437; 1561918.1917319
1118.73; 3362.9551; 1565341.5348735
1119.75; 3210.0576; 1568609.2350088
1120.77; 3085.8295; 1571750.476248
1121.79; 2982.9816; 1574787.0228007
1122.81; 2895.8595; 1577734.8828077
1123.82; 2821.7818; 1580607.3348773
1124.84; 2760.8499; 1583417.7609892
1125.86; 2714.5038; 1586181.0086948
1126.88; 2683.5697; 1588912.7668182
1127.90; 2666.6735; 1591627.3253612
1128.91; 2659.6412; 1594334.7253824
1129.93; 2656.0356; 1597038.45506
1130.95; 2648.4975; 1599734.5111957
1131.97; 2630.2837; 1602412.0265119
1132.99; 2596.4135; 1605055.0634261
1134.00; 2544.1; 1607644.847451
1135.02; 2472.5092; 1610161.7551483
1136.04; 2382.1675; 1612586.6988944
1137.06; 2274.4194; 1614901.9596878
1138.08; 2151.2073; 1617091.7958723
1139.09; 2015.1967; 1619143.1791833
1140.11; 1870.0413; 1621046.800504
1141.13; 1720.4885; 1622798.1835799
1142.15; 1572.1074; 1624398.5210499
1143.17; 1430.616; 1625854.8263857
1144.18; 1301.0023; 1627179.1905469
1145.20; 1186.7462; 1628387.2469714
1146.22; 1089.4216; 1629496.2311704
1147.24; 1008.7956; 1630523.1415957
1148.26; 943.33845; 1631483.4194309
1149.27; 890.90227; 1632390.3195008
1150.29; 849.2938; 1633254.8639431
1151.31; 816.55573; 1634086.0824424
1152.33; 790.93644; 1634891.2216063
1153.35; 770.68059; 1635675.7411908
1154.36; 753.84566; 1636443.1235461
1155.38; 738.31298; 1637194.6942952
1156.40; 722.04281; 1637929.70272
1157.42; 703.48431; 1638645.8193929
1158.43; 681.95956; 1639340.0248017
1159.45; 657.83856; 1640009.6760691
1160.47; 632.40467; 1640653.436733
1161.49; 607.43797; 1641271.7823698
1162.51; 584.65785; 1641866.938837
1163.52; 565.21906; 1642442.307445
1164.54; 549.42805; 1643001.6014938
1165.56; 536.75743; 1643547.997396
1166.58; 526.12361; 1644083.5685285
1167.60; 516.30471; 1644609.1444462
1168.61; 506.34028; 1645124.5770055
1169.63; 495.77997; 1645629.2596188
1170.65; 484.7168; 1646122.6804076
1171.67; 473.62273; 1646604.8079108
1172.69; 463.06906; 1647076.1922267
1173.70; 453.44377; 1647537.778416
1174.72; 444.76689; 1647990.5319224
1175.74; 436.66319; 1648435.0362077
1176.76; 428.49566; 1648871.2263035
1177.78; 419.61099; 1649298.3721819
1178.79; 409.61324; 1649715.3407809
1179.81; 398.57355; 1650121.071451
1180.83; 387.10157; 1650515.1241402
1181.85; 376.24506; 1650898.1253762
1182.87; 367.23613; 1651271.9559099
1183.88; 361.15208; 1651639.5931416
1184.90; 358.59096; 1652004.6232696
1185.92; 359.4647; 1652370.5428195
1186.94; 362.98247; 1652740.0433138
1187.96; 367.84104; 1653114.4896188
1188.97; 372.57222; 1653493.7520619
1189.99; 375.94423; 1653876.4470652
1191.01; 377.29112; 1654260.5131452
1192.03; 376.66433; 1654643.9411831
1193.05; 374.75716; 1655025.4277964
1194.06; 372.62848; 1655404.7475095
1195.08; 371.32016; 1655782.735405
1196.10; 371.49766; 1656160.9039892
1197.12; 373.23335; 1656540.8394329
1198.14; 375.99885; 1656923.5900389
1199.15; 378.85757; 1657309.2506975
1200.17; 380.77886; 1657696.8671416
1201.19; 380.95762; 1658084.6655617
1202.21; 379.0309; 1658470.5026578
1203.22; 375.1307; 1658852.3695215
1204.24; 369.77978; 1659228.7893844
1205.26; 363.69477; 1659599.0149619
1206.28; 357.58681; 1659963.0229027
1207.30; 352.03502; 1660321.3793607
1208.31; 347.46229; 1660675.080977
1209.33; 344.19109; 1661025.4526568
1210.35; 342.52329; 1661374.1265811
1211.37; 342.78856; 1661723.0705431
1212.39; 345.33799; 1662074.6097197
1213.40; 350.50275; 1662431.4063994
1214.42; 358.56728; 1662796.4124193
1215.44; 369.8025; 1663172.8554034
1216.46; 384.56709; 1663564.3281016
1217.48; 403.43341; 1663975.0059039
1218.49; 427.25971; 1664409.9378508
1219.51; 457.13742; 1664875.2840229
1220.53; 494.19668; 1665378.354918
1221.55; 539.33252; 1665927.3721543
1222.57; 592.97902; 1666530.9992132
1223.58; 655.06774; 1667197.8299022
1224.60; 725.24384; 1667936.0968337
1225.62; 803.29555; 1668753.8170438
1226.64; 889.63077; 1669659.42278
1227.66; 985.57049; 1670662.6910062
1228.67; 1093.265; 1671775.5875573
1229.69; 1215.1748; 1673012.5830618
1230.71; 1353.2461; 1674390.1292245
1231.73; 1508.0655; 1675925.2748256
1232.75; 1678.3293; 1677633.7416133
1233.76; 1860.8691; 1679528.0260991
1234.78; 2051.267; 1681616.1274058
1235.80; 2244.8541; 1683901.2920326
1236.82; 2437.7224; 1686382.788291
1237.84; 2627.3625; 1689057.3299731
1238.85; 2812.6901; 1691920.5271701
1239.87; 2993.4752; 1694967.7557226
1240.89; 3169.4278; 1698194.0964826
1241.91; 3339.3216; 1701593.3817827
1242.93; 3500.485; 1705156.7244376
1243.94; 3648.8029; 1708871.0483035
1244.96; 3779.1342; 1712718.0438549
1245.98; 3885.8942; 1716673.716506
1247.00; 3963.5531; 1720708.4424928
1248.02; 4006.9621; 1724787.3569669
1249.03; 4011.6435; 1728871.0369132
1250.05; 3974.3269; 1732916.7301876
1251.07; 3893.9727; 1736880.6263576
1252.09; 3773.2638; 1740721.6460491
1253.10; 3620.1686; 1744406.821515
1254.12; 3448.8656; 1747917.617893
1255.14; 3279.26; 1751255.7631122
1256.16; 3134.6299; 1754446.6810645
1257.18; 3037.546; 1757538.7718413
1258.19; 3004.9276; 1760597.6584236
1259.21; 3043.6172; 1763695.9294231
1260.23; 3147.9448; 1766900.4014047
1261.25; 3300.2835; 1770259.9476265
1262.27; 3474.7106; 1773797.0530493
1263.28; 3642.8575; 1777505.3247613
1264.30; 3780.2596; 1781353.4659535
1265.32; 3871.2961; 1785294.2783476
1266.34; 3911.259; 1789275.771273
1267.36; 3905.0631; 1793250.9569705
1268.37; 3863.2484; 1797183.5771227
1269.39; 3796.8265; 1801048.5826865
1270.41; 3712.8379; 1804828.091424
1271.43; 3612.1261; 1808505.0799351
1272.45; 3489.943; 1812057.6912935
1273.46; 3338.9268; 1815456.5746777
1274.48; 3153.157; 1818666.352437
1275.50; 2931.6771; 1821650.6732392
1276.52; 2680.1835; 1824378.9843438
1277.54; 2410.3447; 1826832.6112822
1278.55; 2137.125; 1829008.1123043
1279.57; 1875.1777; 1830916.9622584
1280.59; 1635.6189; 1832581.9517048
1281.61; 1424.2211; 1834031.7472948
1282.63; 1241.446; 1835295.4857473
1283.64; 1084.0286; 1836398.9801051
1284.66; 947.30868; 1837363.2994632
1285.68; 827.35812; 1838205.5143318
1286.70; 722.1809; 1838940.6633251
1287.72; 631.7307; 1839583.7379182
1288.73; 556.98811; 1840150.727784
1289.75; 498.66435; 1840658.3465762
1290.77; 456.15109; 1841122.688707
1291.79; 427.13473; 1841557.493429
1292.81; 407.95656; 1841972.7756078
1293.82; 394.48431; 1842374.3436081
1294.84; 383.08833; 1842764.3109923
1295.86; 371.3362; 1843142.3152204
1296.88; 358.19177; 1843506.9389817
1297.89; 343.73565; 1843856.8470404
1298.91; 328.60892; 1844191.3567369
1299.93; 313.45224; 1844510.4375891
1300.95; 298.56033; 1844814.3591167
1301.97; 283.83855; 1845103.2945119
1302.98; 269.00503; 1845377.1300253
1304.00; 253.88853; 1845635.5775901
1305.02; 238.65965; 1845878.5228202
1306.04; 223.89072; 1846106.4339138
1307.06; 210.43038; 1846320.6429645
1308.07; 199.15935; 1846523.3785866
1309.09; 190.73151; 1846717.5350303
1310.11; 185.39413; 1846906.2582529
1311.13; 182.93569; 1847092.4788885
1312.15; 182.75643; 1847278.5170458
1313.16; 184.01786; 1847465.8392903
1314.18; 185.81458; 1847654.9905174
1315.20; 187.32241; 1847845.6766519
1316.22; 187.89958; 1848036.9503162
1317.24; 187.1388; 1848227.4495377
1318.25; 184.88022; 1848415.6496259
1319.27; 181.19667; 1848600.1000218
1320.29; 176.35847; 1848779.6253391
1321.31; 170.7811; 1848953.4731275
1322.33; 164.95866; 1849121.3939249
1323.34; 159.38948; 1849283.6455377
1324.36; 154.50393; 1849440.9238726
1325.38; 150.60616; 1849594.2344462
1326.40; 147.83878; 1849744.7279437
1327.42; 146.17423; 1849893.5270072
1328.43; 145.43105; 1850041.5695424
1329.45; 145.30944; 1850189.488285
1330.47; 145.43999; 1850337.539923
1331.49; 145.43982; 1850485.5913881
1332.51; 144.9712; 1850633.1658126
1333.52; 143.79673; 1850779.5446763
1334.54; 141.82336; 1850923.9147411
1335.56; 139.12611; 1851065.5391169
1336.58; 135.94356; 1851203.9237981
1337.60; 132.64216; 1851338.9477965
1338.61; 129.6532; 1851470.9291567
1339.63; 127.39407; 1851600.6108263
1340.65; 126.19002; 1851729.0668198
1341.67; 126.21256; 1851857.5457582
1342.69; 127.44679; 1851987.2810872
1343.70; 129.6923; 1852119.302251
1344.72; 132.59537; 1852254.2786188
1345.74; 135.70454; 1852392.4199859
1346.76; 138.53912; 1852533.4468285
1347.77; 140.65987; 1852676.6325087
1348.79; 141.73187; 1852820.9094411
1349.81; 141.5705; 1852965.022103
1350.83; 140.16298; 1853107.7019702
1351.85; 137.66023; 1853247.8341461
1352.86; 134.33824; 1853384.584678
1353.88; 130.53479; 1853517.4634625
1354.90; 126.57456; 1853646.3108994
1355.92; 122.70092; 1853771.2151397
1356.94; 119.03354; 1853892.3861435
1357.95; 115.56519; 1854010.0265245
1358.97; 112.20045; 1854124.2417427
1359.99; 108.82528; 1854235.0211868
1361.01; 105.38568; 1854342.2992643
1362.03; 101.94845; 1854446.0783899
1363.04; 98.72159; 1854546.5727086
1364.06; 96.023764; 1854644.3207568
1365.08; 94.209042; 1854740.2214961
1366.10; 93.568384; 1854835.4700738
1367.12; 94.23832; 1854931.4006174
1368.13; 96.146287; 1855029.2733883
1369.15; 99.011405; 1855130.0627259
1370.17; 102.40238; 1855234.3039288
1371.19; 105.83631; 1855342.0407297
1372.21; 108.88951; 1855452.8855539
1373.22; 111.28788; 1855566.1718156
1374.24; 112.95161; 1855681.1516818
1375.26; 113.98373; 1855797.1821971
1376.28; 114.61018; 1855913.8504141
1377.30; 115.09402; 1856031.0111611
1378.31; 115.65333; 1856148.7412604
1379.33; 116.40949; 1856267.2411003
1380.35; 117.38056; 1856386.7294496
1381.37; 118.51783; 1856507.3754843
1382.39; 119.7681; 1856629.2942387
1383.40; 121.13508; 1856752.6045204
1384.42; 122.71337; 1856877.5214337
1385.44; 124.67839; 1857004.4386545
1386.46; 127.23154; 1857133.9548712
1387.48; 130.51676; 1857266.8153052
1388.49; 134.53692; 1857403.768089
1389.51; 139.10136; 1857545.36727
1390.53; 143.82863; 1857691.7786075
1391.55; 148.21223; 1857842.6522669
1392.56; 151.73698; 1857997.1139652
1393.58; 154.01574; 1858153.895347
1394.60; 154.90672; 1858311.5837022
1395.62; 154.57333; 1858468.932679
1396.64; 153.46344; 1858625.1518339
1397.65; 152.20746; 1858780.0924628
1398.67; 151.45998; 1858934.2721896
1399.69; 151.72847; 1859088.7252267
1400.71; 153.23931; 1859244.7162308
1401.73; 155.88189; 1859403.3972638
1402.74; 159.24864; 1859565.5055071
1403.76; 162.75884; 1859731.1869839
1404.78; 165.82685; 1859899.9915587
1405.80; 168.02089; 1860071.0295768
1406.82; 169.16208; 1860243.2292775
1407.83; 169.33464; 1860415.6046382
1408.85; 168.81045; 1860587.4463915
1409.87; 167.9219; 1860758.3836407
1410.89; 166.93546; 1860928.3167326
1411.91; 165.97605; 1861097.27319
1412.92; 165.03048; 1861265.2670959
1413.94; 164.02384; 1861432.2362868
1414.96; 162.93071; 1861598.0927239
1415.98; 161.86556; 1861762.8648826
1417.00; 161.10272; 1861926.8604974
1418.01; 161.00425; 1862090.7558767
1419.03; 161.8735; 1862255.5361195
1420.05; 163.78747; 1862422.2646937
1421.07; 166.47742; 1862591.7315251
1422.09; 169.31648; 1862764.0883995
1423.10; 171.43724; 1862938.6041098
1424.12; 171.95527; 1863113.6471586
1425.14; 170.23284; 1863286.9368443
1426.16; 166.09715; 1863456.0165724
1427.18; 159.93833; 1863618.8268861
1428.19; 152.64942; 1863774.2174099
1429.21; 145.42186; 1863922.2505916
1430.23; 139.4564; 1864064.2111916
1431.25; 135.67532; 1864202.322813
1432.27; 134.5186; 1864339.2569421
1433.28; 135.87715; 1864477.5740204
1434.30; 139.17175; 1864619.2448614
1435.32; 143.54281; 1864765.3652437
1436.34; 148.0876; 1864916.1120253
1437.36; 152.0756; 1865070.9184264
1438.37; 155.08763; 1865228.7909397
1439.39; 157.05322; 1865388.6643381
1440.41; 158.19211; 1865549.6970829
1441.43; 158.88976; 1865711.4400018
1442.44; 159.54898; 1865873.8539813
1443.46; 160.45952; 1866037.1948454
1444.48; 161.71729; 1866201.8160716
1445.50; 163.21066; 1866367.9574832
1446.52; 164.67464; 1866535.5891578
1447.53; 165.79899; 1866704.365378
1448.55; 166.36304; 1866873.7157768
1449.57; 166.36085; 1867043.0639419
1450.59; 166.07812; 1867212.1243046
1451.61; 166.08892; 1867381.1956547
1452.62; 167.15764; 1867551.3549159
1453.64; 170.05789; 1867724.4665078
1454.66; 175.34779; 1867902.9629865
1455.68; 183.16256; 1868089.4145675
1456.70; 193.09042; 1868285.9722835
1457.71; 204.18176; 1868493.8205025
1458.73; 215.10684; 1868712.7899793
1459.75; 224.4327; 1868941.2527819
1460.77; 230.95027; 1869176.350186
1461.79; 233.96184; 1869414.5132424
1462.80; 233.44608; 1869652.1512789
1463.82; 230.05122; 1869886.3334887
1464.84; 224.91761; 1870115.2899109
1465.86; 219.38133; 1870338.6106396
1466.88; 214.64406; 1870557.109034
1467.89; 211.50099; 1870772.4079124
1468.91; 210.19554; 1870986.3778994
1469.93; 210.42751; 1871200.5840239
1470.95; 211.49391; 1871415.8757024
1471.97; 212.50635; 1871632.197992
1472.98; 212.61503; 1871848.6309134
1474.00; 211.1801; 1872063.6031467
1475.02; 207.85834; 1872275.1939717
1476.04; 202.60593; 1872481.4380648
1477.06; 195.62333; 1872680.574177
1478.07; 187.2782; 1872871.2153017
1479.09; 178.0361; 1873052.4483642
1480.11; 168.41264; 1873223.8851652
1481.13; 158.9427; 1873385.6819733
1482.15; 150.15172; 1873538.5299449
1483.16; 142.51479; 1873683.603847
1484.18; 136.3992; 1873822.4523421
1485.20; 132.00076; 1873956.8234169
1486.22; 129.29475; 1874088.4398931
1487.23; 128.02427; 1874218.7630768
1488.25; 127.73978; 1874348.7966585
1489.27; 127.88719; 1874478.9802989
1490.29; 127.92438; 1874609.2017963
1491.31; 127.43421; 1874738.9243187
1492.32; 126.20135; 1874867.3918441
1493.34; 124.23082; 1874993.853462
1494.36; 121.70486; 1875117.7437613
1495.38; 118.89499; 1875238.7737299
1496.40; 116.06088; 1875356.9186983
1497.41; 113.37127; 1875472.3257621
1498.43; 110.8735; 1875585.190204
1499.45; 108.52011; 1875695.6589928
1500.47; 106.23943; 1875803.8061514
1501.49; 104.02011; 1875909.6941362
1502.50; 101.973; 1876013.4982526
1503.52; 100.34123; 1876115.6412936
1504.54; 99.447658; 1876216.8747184
1505.56; 99.593032; 1876318.2561276
1506.58; 100.93845; 1876421.0071095
1507.59; 103.41519; 1876526.2793096
1508.61; 106.69879; 1876634.8940692
1509.63; 110.26367; 1876747.1377313
1510.65; 113.50709; 1876862.6830504
1511.67; 115.90516; 1876980.6694979
1512.68; 117.1507; 1877099.9238601
1513.70; 117.2265; 1877219.2553787
1514.72; 116.38869; 1877337.7340412
1515.74; 115.0662; 1877454.8664701
1516.76; 113.71144; 1877570.6198049
1517.77; 112.6547; 1877685.2974261
1518.79; 112.01317; 1877799.3219951
1519.81; 111.68465; 1877913.0121457
1520.83; 111.42497; 1878026.4379602
1521.85; 110.97699; 1878139.4077448
1522.86; 110.20039; 1878251.5869864
1523.88; 109.15215; 1878362.6991677
1524.90; 108.08632; 1878472.7263802
1525.92; 107.37246; 1878582.0269097
1526.94; 107.36216; 1878691.3169519
1527.95; 108.25197; 1878801.5127882
1528.97; 109.99198; 1878913.4798786
1529.99; 112.27255; 1879027.7684863
1531.01; 114.59431; 1879144.4205484
1532.03; 116.39825; 1879262.9089433
1533.04; 117.21378; 1879382.2275124
1534.06; 116.77907; 1879501.1035693
1535.08; 115.09928; 1879618.2696737
1536.10; 112.42984; 1879732.7184007
1537.11; 109.19555; 1879843.874757
1538.13; 105.87398; 1879951.649902
1539.15; 102.87879; 1880056.3760679
1540.17; 100.47413; 1880158.6543991
1541.19; 98.738804; 1880259.1662412
1542.20; 97.582257; 1880358.5007677
1543.22; 96.800636; 1880457.0396375
1544.24; 96.152015; 1880554.9182393
1545.26; 95.428235; 1880652.0600651
1546.28; 94.505059; 1880748.2621374
1547.29; 93.360647; 1880843.2992476
1548.31; 92.061962; 1880937.0143522
1549.33; 90.727096; 1881029.3706213
1550.35; 89.476942; 1881120.454287
1551.37; 88.391109; 1881210.4326215
1552.38; 87.480552; 1881299.4840486
1553.40; 86.683762; 1881387.7243775
1554.42; 85.886216; 1881475.1528388
1555.44; 84.956017; 1881561.6343983
1556.46; 83.784203; 1881646.9231017
1557.47; 82.317354; 1881730.7186163
1558.49; 80.573137; 1881812.738593
1559.51; 78.635162; 1881892.7857952
1560.53; 76.630152; 1881970.7919828
1561.55; 74.695601; 1882046.8288817
1562.56; 72.948282; 1882121.0870852
1563.58; 71.462462; 1882193.8327874
1564.60; 70.262512; 1882265.3569924
1565.62; 69.329318; 1882335.9312467
1566.64; 68.615621; 1882405.7789875
1567.65; 68.06353; 1882475.0647237
1568.67; 67.618372; 1882543.8973088
1569.69; 67.235908; 1882612.3405619
1570.71; 66.883461; 1882680.4250395
1571.73; 66.538023; 1882748.157876
1572.74; 66.185034; 1882815.5313842
1573.76; 65.82023; 1882882.5335376
1574.78; 65.454479; 1882949.1633723
1575.80; 65.119054; 1883015.4517595
1576.82; 64.86754; 1883081.4841157
1577.83; 64.771023; 1883147.418222
1578.85; 64.905392; 1883213.4891104
1579.87; 65.332582; 1883279.9948596
1580.89; 66.080453; 1883347.261909
1581.90; 67.127546; 1883415.594854
1582.92; 68.39854; 1883485.2216157
1583.94; 69.773763; 1883556.2482951
1584.96; 71.112174; 1883628.6374196
1585.98; 72.282899; 1883702.2182913
1586.99; 73.197081; 1883776.7297615
1588.01; 73.830693; 1883851.8862207
1589.03; 74.230673; 1883927.4498429
1590.05; 74.501213; 1884003.2888624
1591.07; 74.772938; 1884079.4044865
1592.08; 75.163481; 1884155.9176667
1593.10; 75.741329; 1884233.0190714
1594.12; 76.504601; 1884310.8974534
1595.14; 77.382096; 1884389.6690878
1596.16; 78.256792; 1884469.3311253
1597.17; 79.004159; 1884549.7539498
1598.19; 79.532067; 1884630.7141621
1599.21; 79.807868; 1884711.9551276
1600.23; 79.862255; 1884793.2514566
1601.25; 79.767709; 1884874.4515423
1602.26; 79.598938; 1884955.4798264
1603.28; 79.390271; 1885036.2956968
1604.30; 79.107488; 1885116.8237062
1605.32; 78.647687; 1885196.8836573
1606.34; 77.871498; 1885276.1534823
1607.35; 76.660208; 1885354.1902665
1608.37; 74.980207; 1885430.5168822
1609.39; 72.932434; 1885504.7589524
1610.41; 70.767066; 1885576.796772
1611.43; 68.853261; 1885646.8864205
1612.44; 67.607328; 1885715.7077633
1613.46; 67.396112; 1885784.3140966
1614.48; 68.4411; 1885853.9841834
1615.50; 70.75007; 1885926.0047014
1616.52; 74.096291; 1886001.4315278
1617.53; 78.05261; 1886080.885717
1618.55; 82.072825; 1886164.4323113
1619.57; 85.600203; 1886251.5696242
1620.59; 88.176325; 1886341.3293185
1621.61; 89.524276; 1886432.4611688
1622.62; 89.587983; 1886523.65787
1623.64; 88.521571; 1886613.7690091
1624.66; 86.635331; 1886701.9600378
1625.68; 84.314826; 1886787.7888921
1626.70; 81.93436; 1886871.1945345
1627.71; 79.78497; 1886952.412191
1628.73; 78.031114; 1887031.8444974
1629.75; 76.701608; 1887109.9234242
1630.77; 75.711618; 1887186.9945841
1631.78; 74.905774; 1887263.2454294
1632.80; 74.109153; 1887338.6853492
1633.82; 73.17315; 1887413.1724586
1634.84; 72.006501; 1887486.4719692
1635.86; 70.586728; 1887558.3262122
1636.87; 68.952636; 1887628.51702
1637.89; 67.182938; 1887696.9063522
1638.91; 65.368806; 1887763.4489757
1639.93; 63.588636; 1887828.1794628
1640.95; 61.891766; 1887891.1826101
1641.96; 60.294648; 1887952.5599596
1642.98; 58.789029; 1888012.4046547
1644.00; 57.358058; 1888070.7926827
1645.02; 55.993794; 1888127.791949
1646.04; 54.70931; 1888183.4836662
1647.05; 53.540377; 1888237.9854596
1648.07; 52.535329; 1888291.4641571
1649.09; 51.73597; 1888344.1291422
1650.11; 51.155943; 1888396.2036848
1651.13; 50.764591; 1888447.8798476
1652.14; 50.483301; 1888499.2696691
1653.16; 50.197722; 1888550.3687842
1654.18; 49.784159; 1888601.0469098
1655.20; 49.143424; 1888651.0727951
1656.22; 48.23223; 1888700.1711241
1657.23; 47.081944; 1888748.0985115
1658.25; 45.797605; 1888794.7184974
1659.27; 44.535644; 1888840.0538608
1660.29; 43.465169; 1888884.2995268
1661.31; 42.722998; 1888927.7896953
1662.32; 42.375058; 1888970.9256755
1663.34; 42.395537; 1889014.0825028
1664.36; 42.670457; 1889057.5191863
1665.38; 43.02544; 1889101.3172281
1666.40; 43.270492; 1889145.3647221
1667.41; 43.249542; 1889189.3908894
1668.43; 42.881009; 1889233.0419065
1669.45; 42.178126; 1889275.9774185
1670.47; 41.243548; 1889317.9615706
1671.49; 40.240209; 1889358.9243673
1672.50; 39.347139; 1889398.9780565
1673.52; 38.713084; 1889438.3863056
1674.54; 38.420994; 1889477.4972198
1675.56; 38.472659; 1889516.6607266
1676.57; 38.79638; 1889556.1537675
1677.59; 39.273457; 1889596.1324523
1678.61; 39.773906; 1889636.6205724
1679.63; 40.189819; 1889677.5320738
1680.65; 40.456739; 1889718.7152882
1681.66; 40.558475; 1889760.0020652
1682.68; 40.517014; 1889801.2466374
1683.70; 40.374277; 1889842.3459093
1684.72; 40.174493; 1889883.2418101
1685.74; 39.954369; 1889923.9136341
1686.75; 39.743654; 1889964.370959
1687.77; 39.57327; 1890004.6548401
1688.79; 39.484162; 1890044.8480134
1689.81; 39.529285; 1890085.08712
1690.83; 39.764116; 1890125.5652746
1691.84; 40.226663; 1890166.5142812
1692.86; 40.913716; 1890208.1626789
1693.88; 41.763572; 1890250.6761935
1694.90; 42.654727; 1890294.0968645
1695.92; 43.425124; 1890338.301767
1696.93; 43.908981; 1890382.9992146
1697.95; 43.980919; 1890427.7698921
1698.97; 43.593158; 1890472.1458458
1699.99; 42.792588; 1890515.7068538
1701.01; 41.710683; 1890558.1665294
1702.02; 40.528292; 1890599.4225816
1703.04; 39.426062; 1890639.5566113
1704.06; 38.536364; 1890678.7849672
1705.08; 37.912095; 1890717.3778444
1706.10; 37.521835; 1890755.5734538
1707.11; 37.271678; 1890793.5144138
1708.13; 37.045038; 1890831.2246635
1709.15; 36.746093; 1890868.630601
1710.17; 36.332183; 1890905.6151957
1711.19; 35.825221; 1890942.0837243
1712.20; 35.300109; 1890978.0177123
1713.22; 34.856079; 1891013.4996966
1714.24; 34.58207; 1891048.7027519
1715.26; 34.528142; 1891083.8509102
1716.28; 34.691518; 1891119.165378
1717.29; 35.020006; 1891154.8142325
1718.31; 35.429477; 1891190.8799116
1719.33; 35.828051; 1891227.3513212
1720.35; 36.13866; 1891264.1389175
1721.37; 36.313668; 1891301.1046646
1722.38; 36.338884; 1891338.0960803
1723.40; 36.228181; 1891374.9748054
1724.42; 36.012583; 1891411.6340609
1725.44; 35.728498; 1891448.0041304
1726.45; 35.408955; 1891484.0489188
1727.47; 35.079796; 1891519.7586373
1728.49; 34.760731; 1891555.1435611
1729.51; 34.469515; 1891590.2320398
1730.53; 34.226675; 1891625.0733179
1731.54; 34.058202; 1891659.7430979
1732.56; 33.99438; 1891694.3479102
1733.58; 34.064199; 1891729.0237947
1734.60; 34.286398; 1891763.925868
1735.62; 34.659719; 1891799.2079667
1736.63; 35.155913; 1891834.9951689
1737.65; 35.718974; 1891871.3555428
1738.67; 36.272723; 1891908.2796094
1739.69; 36.736291; 1891945.6755686
1740.71; 37.044094; 1891983.3848573
1741.72; 37.164521; 1892021.2167358
1742.74; 37.110938; 1892058.9940693
1743.76; 36.940243; 1892096.5976422
1744.78; 36.73793; 1892133.99527
1745.80; 36.593192; 1892171.2455603
1746.81; 36.571354; 1892208.4736208
1747.83; 36.692451; 1892245.8249522
1748.85; 36.923111; 1892283.4110856
1749.87; 37.184753; 1892321.2635591
1750.89; 37.375708; 1892359.3104172
1751.90; 37.400383; 1892397.3823934
1752.92; 37.19652; 1892435.2468454
1753.94; 36.752713; 1892472.6595214
1754.96; 36.111977; 1892509.4199556
1755.98; 35.361789; 1892545.4167304
1756.99; 34.614884; 1892580.6531883
1758.01; 33.986815; 1892615.2502991
1759.03; 33.575679; 1892649.4288914
1760.05; 33.447231; 1892683.4767295
1761.07; 33.626156; 1892717.7067056
1762.08; 34.092786; 1892752.4116907
1763.10; 34.784459; 1892787.8207687
1764.12; 35.601602; 1892824.0616635
1765.14; 36.419414; 1892861.135055
1766.16; 37.105687; 1892898.9070436
1767.17; 37.54357; 1892937.1247779
1768.19; 37.655341; 1892975.4562906
1769.21; 37.421101; 1893013.549357
1770.23; 36.885875; 1893051.0975857
1771.24; 36.150922; 1893087.8976644
1772.26; 35.34958; 1893123.8820115
1773.28; 34.613251; 1893159.1168078
1774.30; 34.037152; 1893193.7651596
1775.32; 33.656333; 1893228.0258547
1776.33; 33.4397; 1893262.0660265
1777.35; 33.304019; 1893295.9680808
1778.37; 33.143323; 1893329.7065531
1779.39; 32.864017; 1893363.1607046
1780.41; 32.414335; 1893396.1570992
1781.42; 31.799052; 1893428.5271622
1782.44; 31.075711; 1893460.1608951
1783.46; 30.334894; 1893491.0405083
1784.48; 29.67207; 1893521.2453948
1785.50; 29.160548; 1893550.929574
1786.51; 28.833657; 1893580.2809929
1787.53; 28.680307; 1893609.4763074
1788.55; 28.653272; 1893638.644102
1789.57; 28.68573; 1893667.8449378
1790.59; 28.709857; 1893697.0703336
1791.60; 28.671997; 1893726.2571894
1792.62; 28.541226; 1893755.3109258
1793.64; 28.310886; 1893784.1301865
1794.66; 27.994754; 1893812.627638
1795.68; 27.620313; 1893840.7439246
1796.69; 27.221267; 1893868.4539993
1797.71; 26.830499; 1893895.7662892
1798.73; 26.473904; 1893922.7155809
1799.75; 26.165307; 1893949.3507339
1800.77; 25.903021; 1893975.7188918
1801.78; 25.669078; 1894001.8489056
1802.80; 25.432207; 1894027.7377952
1803.82; 25.154994; 1894053.3444937
1804.84; 24.804274; 1894078.5941746
1805.86; 24.362345; 1894103.393991
1806.87; 23.83562; 1894127.6576239
1807.89; 23.257502; 1894151.332757
1808.91; 22.683684; 1894174.4237683
1809.93; 22.180382; 1894197.0024399
1810.95; 21.808374; 1894219.2024239
1811.96; 21.607338; 1894241.1977615
1812.98; 21.585104; 1894263.1704658
1814.00; 21.715069; 1894285.275469
1815.02; 21.9425; 1894307.611987
1816.04; 22.19773; 1894330.2083181
1817.05; 22.41222; 1894353.0229914
1818.07; 22.532794; 1894375.9604038
1819.09; 22.530243; 1894398.8952187
1820.11; 22.400552; 1894421.6980144
1821.12; 22.159463; 1894444.2553915
1822.14; 21.833048; 1894466.480492
1823.16; 21.447918; 1894488.313547
1824.18; 21.024241; 1894509.7153166
1825.20; 20.57331; 1894530.6580585
1826.21; 20.099545; 1894551.1185283
1827.23; 19.605168; 1894571.0757436
1828.25; 19.095053; 1894590.5136832
1829.27; 18.579459; 1894609.4267707
1830.29; 18.073475; 1894627.8247882
1831.30; 17.593425; 1894645.7341352
1832.32; 17.151795; 1894663.1939226
1833.34; 16.75283; 1894680.2475802
1834.36; 16.390708; 1894696.9326137
1835.38; 16.051276; 1894713.2721199
1836.39; 15.716938; 1894729.2712847
1837.41; 15.373136; 1894744.9204738
1838.43; 15.014147; 1894760.2042276
1839.45; 14.646065; 1894775.1132896
1840.47; 14.285677; 1894789.6554925
1841.48; 13.955296; 1894803.8613821
1842.50; 13.674992; 1894817.7819341
1843.52; 13.454644; 1894831.4781815
1844.54; 13.288483; 1894845.0052843
1845.56; 13.154168; 1894858.3956597
1846.57; 13.017144; 1894871.6465505
1847.59; 12.8394; 1894884.7165056
1848.61; 12.590301; 1894897.5328884
1849.63; 12.256379; 1894910.0093532
1850.65; 11.847111; 1894922.0692007
1851.66; 11.39476; 1894933.6685748
1852.68; 10.948059; 1894944.8132268
1853.70; 10.561288; 1894955.5641627
1854.72; 10.281642; 1894966.030431
1855.74; 10.138239; 1894976.3507203
1856.75; 10.135562; 1894986.6682855
1857.77; 10.252797; 1894997.10519
1858.79; 10.448789; 1895007.7416059
1859.81; 10.670944; 1895018.6041664
1860.83; 10.865526; 1895029.6648028
1861.84; 10.98688; 1895040.848973
1862.86; 11.003856; 1895052.050424
1863.88; 10.902758; 1895063.1489616
1864.90; 10.687159; 1895074.0280287
1865.91; 10.375453; 1895084.5897925
1866.93; 9.9970884; 1895094.7663971
1867.95; 9.5881501; 1895104.5267202
1868.97; 9.1866274; 1895113.8783105
1869.99; 8.8275674; 1895122.8643932
1871.00; 8.5384794; 1895131.5561968
1872.02; 8.3356523; 1895140.0415312
1873.04; 8.22225; 1895148.4114269
1874.06; 8.1888924; 1895156.747366
1875.08; 8.2168503; 1895165.1117651
1876.09; 8.2831403; 1895173.5436445
1877.11; 8.366062; 1895182.0599345
1878.13; 8.4494355; 1895190.6610953
1879.15; 8.524192; 1895199.3383549
1880.17; 8.5869466; 1895208.079496
1881.18; 8.636388; 1895216.8709663
1882.20; 8.6692302; 1895225.6958686
1883.22; 8.6776984; 1895234.5293911
1884.24; 8.6499032; 1895243.3346192
1885.26; 8.5732553; 1895252.0618232
1886.27; 8.4397523; 1895260.6531268
1887.29; 8.2511099; 1895269.0524006
1888.31; 8.0216636; 1895277.2181081
1889.33; 7.7777457; 1895285.1355175
1890.35; 7.5535227; 1895292.8246777
1891.36; 7.38451; 1895300.3417902
1892.38; 7.3006794; 1895307.7735668
1893.40; 7.3210186; 1895315.2260479
1894.42; 7.4506828; 1895322.8105214
1895.44; 7.6809021; 1895330.6293483
1896.45; 7.9910085; 1895338.7638501
1897.47; 8.3516322; 1895347.2654513
1898.49; 8.7283191; 1895356.1505034
1899.51; 9.0852754; 1895365.3989218
1900.53; 9.3893149; 1895374.9568391
1901.54; 9.6140803; 1895384.743558
1902.56; 9.7442194; 1895394.6627528
1903.58; 9.778642; 1895404.6169884
1904.60; 9.7316527; 1895414.5233909
1905.62; 9.6309535; 1895424.3272859
1906.63; 9.512296; 1895434.0103928
1907.65; 9.4117101; 1895443.5911076
1908.67; 9.3572549; 1895453.1163893
1909.69; 9.362681; 1895462.6471945
1910.71; 9.424974; 1895472.2414114
1911.72; 9.5265801; 1895481.9390588
1912.74; 9.641593; 1895491.7537845
1913.76; 9.7438974; 1895501.6726516
1914.78; 9.8146905; 1895511.663583
1915.79; 9.8471571; 1895521.687564
1916.81; 9.8471717; 1895531.7115599
1917.83; 9.8303033; 1895541.7183844
1918.85; 9.8165639; 1895551.7112228
1919.87; 9.8248656; 1895561.712512
1920.88; 9.8689188; 1895571.7586455
1921.90; 9.955496; 1895581.8929108
1922.92; 10.084983; 1895592.158988
1923.94; 10.253338; 1895602.5964439
1924.96; 10.454268; 1895613.2384381
1925.97; 10.680602; 1895624.1108298
1926.99; 10.924418; 1895635.2314161
1928.01; 11.176143; 1895646.6082473
1929.03; 11.423326; 1895658.2367003
1930.05; 11.650026; 1895670.0959235
1931.06; 11.837566; 1895682.1460545
1932.08; 11.967006; 1895694.3279498
1933.10; 12.023083; 1895706.5669291
1934.12; 11.998821; 1895718.7812106
1935.14; 11.899588; 1895730.8944774
1936.15; 11.745273; 1895742.8506589
1937.17; 11.569497; 1895754.6279071
1938.19; 11.415388; 1895766.2482795
1939.21; 11.328363; 1895777.7800639
1940.23; 11.347228; 1895789.3310522
1941.24; 11.495642; 1895801.0331194
1942.26; 11.776113; 1895813.0206942
1943.28; 12.168259; 1895825.4074572
1944.30; 12.632021; 1895838.2663096
1945.32; 13.115224; 1895851.6170415
1946.33; 13.563732; 1895865.4243353
1947.35; 13.931777; 1895879.6062828
1948.37; 14.190106; 1895894.0511984
1949.39; 14.330321; 1895908.6388471
1950.41; 14.364835; 1895923.2616295
1951.42; 14.322944; 1895937.8417688
1952.44; 14.244221; 1895952.3417713
1953.46; 14.170669; 1895966.7669013
1954.48; 14.138958; 1895981.1597506
1955.50; 14.173768; 1895995.5880348
1956.51; 14.283077; 1896010.1275911
1957.53; 14.456142; 1896024.8433201
1958.55; 14.664855; 1896039.7715093
1959.57; 14.868888; 1896054.907396
1960.58; 15.024353; 1896070.2015387
1961.60; 15.09464; 1896085.5672307
1962.62; 15.061055; 1896100.8987343
1963.64; 14.930174; 1896116.0970071
1964.66; 14.735145; 1896131.0967485
1965.67; 14.529477; 1896145.8871289
1966.69; 14.374089; 1896160.5193317
1967.71; 14.32071; 1896175.0971961
1968.73; 14.396378; 1896189.7520879
1969.75; 14.594029; 1896204.6081794
1970.76; 14.872623; 1896219.7478678
1971.78; 15.167502; 1896235.18773
1972.80; 15.408355; 1896250.8727709
1973.82; 15.53963; 1896266.6914434
1974.84; 15.537222; 1896282.5076654
1975.85; 15.416362; 1896298.2008567
1976.87; 15.228266; 1896313.7025744
1977.89; 15.046654; 1896329.0194193
1978.91; 14.948249; 1896344.2360923
1979.93; 14.993039; 1896359.4983593
1980.94; 15.209842; 1896374.9813223
1981.96; 15.590759; 1896390.8520423
1982.98; 16.09522; 1896407.236282
1984.00; 16.661514; 1896424.196984
1985.02; 17.221843; 1896441.728077
1986.03; 17.716557; 1896459.762767
1987.05; 18.104178; 1896478.1920394
1988.07; 18.365693; 1896496.887522
1989.09; 18.503479; 1896515.7232647
1990.11; 18.536661; 1896534.5927855
1991.12; 18.495093; 1896553.4199923
1992.14; 18.413753; 1896572.1643984
1993.16; 18.328368; 1896590.8218862
1994.18; 18.272138; 1896609.4221344
1995.20; 18.27289; 1896628.0231475
1996.21; 18.350089; 1896646.7027468
1997.23; 18.511755; 1896665.5469148
1998.25; 18.752034; 1896684.6356765
1999.27; 19.050681; 1896704.0284479
2000.29; 19.37551; 1896723.7518808
2001.30; 19.688079; 1896743.7934952
2002.32; 19.951669; 1896764.1034329
2003.34; 20.139482; 1896784.6045562
2004.36; 20.240482; 1896805.2084936
2005.37; 20.260736; 1896825.8330483
2006.39; 20.219467; 1896846.4155933
2007.41; 20.140936; 1896866.9181969
2008.43; 20.044945; 1896887.323086
2009.45; 19.939609; 1896907.6207475
2010.46; 19.819483; 1896927.7961255
2011.48; 19.670318; 1896947.8196602
2012.50; 19.479143; 1896967.6485875
2013.52; 19.246005; 1896987.24019
2014.54; 18.99253; 1897006.5737664
2015.55; 18.763105; 1897025.6737972
2016.57; 18.616808; 1897044.6249042
2017.59; 18.611649; 1897063.5707601
2018.61; 18.785778; 1897082.6938712
2019.63; 19.14204; 1897102.1796415
2020.64; 19.641699; 1897122.1740431
2021.66; 20.210365; 1897142.7473227
2022.68; 20.755114; 1897163.8751327
2023.70; 21.18784; 1897185.4434393
2024.72; 21.447608; 1897207.2761786
2025.73; 21.514957; 1897229.177476
2026.75; 21.413863; 1897250.9758644
2027.77; 21.201305; 1897272.5578776
2028.79; 20.948559; 1897293.8826072
2029.81; 20.720967; 1897314.9756578
2030.82; 20.562929; 1897335.9078326
2031.84; 20.49249; 1897356.7683034
2032.86; 20.505937; 1897377.6424627
2033.88; 20.589041; 1897398.601218
2034.90; 20.729302; 1897419.7027525
2035.91; 20.923699; 1897441.0021751
2036.93; 21.178791; 1897462.5612701
2037.95; 21.503556; 1897484.4509621
2038.97; 21.898639; 1897506.7428316
2039.99; 22.347317; 1897529.491436
2041.00; 22.812943; 1897552.7140275
2042.02; 23.245078; 1897576.376514
2043.04; 23.593044; 1897600.3932145
2044.06; 23.822572; 1897624.6435653
2045.08; 23.929766; 1897649.0030342
2046.09; 23.947213; 1897673.3802633
2047.11; 23.93961; 1897697.749753
2048.13; 23.989637; 1897722.1701684
2049.15; 24.177995; 1897746.782324
2050.17; 24.563342; 1897771.7867463
2051.18; 25.167873; 1897797.4065552
2052.20; 25.972514; 1897823.8454541
2053.22; 26.922831; 1897851.251734
2054.24; 27.943663; 1897879.6971769
2055.25; 28.958128; 1897909.1753013
2056.27; 29.905593; 1897939.6179043
2057.29; 30.753754; 1897970.9238988
2058.31; 31.501823; 1898002.9913953
2059.33; 32.174457; 1898035.7436042
2060.34; 32.80872; 1898069.1414658
2061.36; 33.438268; 1898103.1801799
2062.38; 34.079581; 1898137.8717229
2063.40; 34.724254; 1898173.2195147
2064.42; 35.339323; 1898209.1934202
2065.43; 35.875055; 1898245.7126782
2066.45; 36.277334; 1898282.6414384
2067.47; 36.500568; 1898319.7974413
2068.49; 36.517329; 1898356.9705064
2069.51; 36.322517; 1898393.9452614
2070.52; 35.932181; 1898430.5226711
2071.54; 35.379157; 1898466.5371263
2072.56; 34.708584; 1898501.8689674
2073.58; 33.975694; 1898536.4547573
2074.60; 33.246306; 1898570.2980618
2075.61; 32.59812; 1898603.4815411
2076.63; 32.119274; 1898636.177576
2077.65; 31.900773; 1898668.6511859
2078.67; 32.021439; 1898701.2476287
2079.69; 32.527446; 1898734.359165
2080.70; 33.411878; 1898768.3710148
2081.72; 34.601652; 1898803.5940031
2082.74; 35.958435; 1898840.1981381
2083.76; 37.296751; 1898878.1646207
2084.78; 38.417284; 1898917.2717585
2085.79; 39.148183; 1898957.1229194
2086.81; 39.383803; 1898997.2139314
2087.83; 39.110217; 1899037.0264448
2088.85; 38.410036; 1899076.1262044
2089.87; 37.444795; 1899114.2433899
2090.88; 36.419412; 1899151.3167799
2091.90; 35.538103; 1899187.4930352
2092.92; 34.963089; 1899223.0839507
2093.94; 34.786068; 1899258.4946666
2094.96; 35.018339; 1899294.1418245
2095.97; 35.600092; 1899330.3811823
2096.99; 36.424421; 1899367.4596706
2098.01; 37.36834; 1899405.4990277
2099.03; 38.322245; 1899444.5094192
2100.04; 39.21063; 1899484.4241486
2101.06; 39.999916; 1899525.1423373
2102.08; 40.692917; 1899566.565971
2103.10; 41.31293; 1899608.6207514
2104.12; 41.882936; 1899651.2557729
2105.13; 42.406493; 1899694.4237525
2106.15; 42.856405; 1899738.0497236
2107.17; 43.17518; 1899782.000194
2108.19; 43.288021; 1899826.0655317
2109.21; 43.125352; 1899869.9652792
2110.22; 42.648587; 1899913.3797005
2111.24; 41.871112; 1899956.002686
2112.26; 40.867043; 1899997.6035718
2113.28; 39.763389; 1900038.0809864
2114.30; 38.716167; 1900077.492374
2115.31; 37.8762; 1900116.0487108
2116.33; 37.354191; 1900154.0736651
2117.35; 37.195498; 1900191.9370772
2118.37; 37.372415; 1900229.9805825
2119.39; 37.796332; 1900268.4556178
2120.40; 38.345716; 1900307.4899017
2121.42; 38.900645; 1900347.0890802
2122.44; 39.372736; 1900387.1688261
2123.46; 39.72124; 1900427.6033345
2124.48; 39.951419; 1900468.2721552
2125.49; 40.097736; 1900509.0899206
2126.51; 40.199726; 1900550.0115073
2127.53; 40.28041; 1900591.0152267
2128.55; 40.33528; 1900632.0748015
2129.57; 40.334995; 1900673.1340857
2130.58; 40.239137; 1900714.0957905
2131.60; 40.014081; 1900754.828398
2132.62; 39.64693; 1900795.1872618
2133.64; 39.149901; 1900835.0401717
2134.66; 38.554289; 1900874.2867737
2135.67; 37.898014; 1900912.8653171
2136.69; 37.213598; 1900950.7471542
2137.71; 36.522893; 1900987.9258834
2138.73; 35.841383; 1901024.4108645
2139.75; 35.189806; 1901060.2325688
2140.76; 34.606725; 1901095.4607215
2141.78; 34.154265; 1901130.2282894
2142.80; 33.9115; 1901164.748733
2143.82; 33.954951; 1901199.313408
2144.84; 34.33148; 1901234.2613727
2145.85; 35.032988; 1901269.923443
2146.87; 35.983012; 1901306.5525964
2147.89; 37.042006; 1901344.2597602
2148.91; 38.032062; 1901382.9747581
2149.92; 38.775104; 1901422.4461403
2150.94; 39.133846; 1901462.2827067
2151.96; 39.043628; 1901502.0274351
2152.98; 38.526069; 1901541.2453107
2154.00; 37.681197; 1901579.6031433
2155.01; 36.66121; 1901616.9226727
2156.03; 35.634091; 1901653.1966396
2157.05; 34.747406; 1901688.5679995
2158.07; 34.101314; 1901723.2816652
2159.09; 33.73606; 1901757.6235184
2160.10; 33.634482; 1901791.8619695
2161.12; 33.736051; 1901826.2038137
2162.14; 33.956844; 1901860.7704155
2163.16; 34.209794; 1901895.5945098
2164.18; 34.421144; 1901930.6337493
2165.19; 34.541165; 1901965.7951651
2166.21; 34.549058; 1902000.9646148
2167.23; 34.452902; 1902036.036182
2168.25; 34.28568; 1902070.9375246
2169.27; 34.098086; 1902105.6479052
2170.28; 33.94867; 1902140.2061862
2171.30; 33.892098; 1902174.7068791
2172.32; 33.966997; 1902209.2838161
2173.34; 34.185542; 1902244.083223
2174.36; 34.527281; 1902279.2305053
2175.37; 34.939239; 1902314.7971431
2176.39; 35.343131; 1902350.7749249
2177.41; 35.648793; 1902387.0638576
2178.43; 35.771302; 1902423.4774992
2179.45; 35.648156; 1902459.7657835
2180.46; 35.252744; 1902495.6515557
2181.48; 34.601112; 1902530.8739945
2182.50; 33.750515; 1902565.2305625
2183.52; 32.790015; 1902598.6093827
2184.54; 31.82496; 1902631.0058187
2185.55; 30.958329; 1902662.5200612
2186.57; 30.272388; 1902693.3360461
2187.59; 29.814013; 1902723.6854244
2188.61; 29.586322; 1902753.8030233
2189.63; 29.548241; 1902783.8818576
2190.64; 29.622224; 1902814.0360029
2191.66; 29.708917; 1902844.278398
2192.68; 29.706193; 1902874.518021
2193.70; 29.52898; 1902904.5772489
2194.71; 29.125943; 1902934.2262023
2195.73; 28.489554; 1902963.2273392
2196.75; 27.657327; 1902991.3813045
2197.77; 26.703876; 1903018.5646985
2198.79; 25.72551; 1903044.7521579
2199.80; 24.820756; 1903070.0186168
2200.82; 24.071147; 1903094.5220055
2201.84; 23.526424; 1903118.4708898
2202.86; 23.197174; 1903142.0846123
2203.88; 23.056033; 1903165.5546595
2204.89; 23.046559; 1903189.0150624
2205.91; 23.097173; 1903212.5269874
2206.93; 23.136618; 1903236.0790657
2207.95; 23.107397; 1903259.601399
2208.97; 22.974475; 1903282.988423
2209.98; 22.727942; 1903306.1244872
2211.00; 22.379918; 1903328.9062779
2212.02; 21.95727; 1903351.2578316
2213.04; 21.492553; 1903373.1363236
2214.06; 21.0157; 1903394.5293997
2215.07; 20.548499; 1903415.4468845
2216.09; 20.102906; 1903435.9107755
2217.11; 19.683073; 1903455.9472949
2218.13; 19.289846; 1903475.583526
2219.15; 18.92582; 1903494.849194
2220.16; 18.59889; 1903513.7820618
2221.18; 18.322771; 1903532.433852
2222.20; 18.113985; 1903550.8731074
2223.22; 17.986107; 1903569.1821881
2224.24; 17.943118; 1903587.447508
2225.25; 17.974299; 1903605.7445688
2226.27; 18.052806; 1903624.1215464
2227.29; 18.139064; 1903642.586331
2228.31; 18.188553; 1903661.1014935
2229.33; 18.162032; 1903679.589658
2230.34; 18.035219; 1903697.9487324
2231.36; 17.804908; 1903716.0733601
2232.38; 17.489431; 1903733.8768459
2233.40; 17.123149; 1903751.3074728
2234.42; 16.746574; 1903768.3547627
2235.43; 16.395198; 1903785.0443662
2236.45; 16.090574; 1903801.4238762
2237.47; 15.836463; 1903817.5447121
2238.49; 15.621118; 1903833.4463366
2239.51; 15.424715; 1903849.1480309
2240.52; 15.229135; 1903864.6506335
2241.54; 15.026557; 1903879.94702
2242.56; 14.82373; 1903895.0369376
2243.58; 14.640393; 1903909.9402263
2244.59; 14.502351; 1903924.702994
2245.61; 14.431646; 1903939.3937872
2246.63; 14.43729; 1903954.0903255
2247.65; 14.509874; 1903968.8607508
2248.67; 14.622087; 1903983.7454044
2249.68; 14.735217; 1903998.7452195
2250.70; 14.809717; 1904013.8208721
2251.72; 14.816599; 1904028.9035306
2252.74; 14.74612; 1904043.9144443
2253.76; 14.611041; 1904058.7878532
2254.77; 14.443415; 1904073.4906264
2255.79; 14.285784; 1904088.032938
2256.81; 14.179322; 1904102.466876
2257.83; 14.15234; 1904116.8733472
2258.85; 14.212417; 1904131.3409741
2259.86; 14.344368; 1904145.9429213
2260.88; 14.514551; 1904160.7181076
2261.90; 14.680226; 1904175.6619438
2262.92; 14.80125; 1904190.7289778
2263.94; 14.850789; 1904205.8464398
2264.95; 14.822042; 1904220.9346393
2265.97; 14.729228; 1904235.9283577
2266.99; 14.602747; 1904250.7933239
2268.01; 14.480206; 1904265.5335489
2269.03; 14.396125; 1904280.188183
2270.04; 14.373452; 1904294.8197368
2271.06; 14.419285; 1904309.4979472
2272.08; 14.525719; 1904324.2845023
2273.10; 14.674987; 1904339.2230062
2274.12; 14.846686; 1904354.3362919
2275.13; 15.024262; 1904369.6303418
2276.15; 15.198425; 1904385.1016826
2277.17; 15.366447; 1904400.7440627
2278.19; 15.527963; 1904416.5508589
2279.21; 15.679302; 1904432.5117121
2280.22; 15.808953; 1904448.6045442
2281.24; 15.896315; 1904464.7863073
2282.26; 15.914618; 1904480.9867014
2283.28; 15.837228; 1904497.1083162
2284.30; 15.645263; 1904513.0345192
2285.31; 15.333874; 1904528.6437412
2286.33; 14.915056; 1904543.8266244
2287.35; 14.416105; 1904558.5015975
2288.37; 13.874357; 1904572.6250937
2289.38; 13.330061; 1904586.1945206
2290.40; 12.819699; 1904599.2444213
2291.42; 12.37159; 1904611.838166
2292.44; 12.004592; 1904624.0583225
2293.46; 11.729467; 1904635.9984134
2294.47; 11.551587; 1904647.7574304
2295.49; 11.473427; 1904659.436884
2296.51; 11.4957; 1904671.1390108
2297.53; 11.616824; 1904682.964436
2298.55; 11.831223; 1904695.0081104
2299.56; 12.127483; 1904707.3533645
2300.58; 12.487348; 1904720.0649456
2301.60; 12.886175; 1904733.1825154
2302.62; 13.294857; 1904746.7161064
2303.64; 13.682768; 1904760.6445737
2304.65; 14.021055; 1904774.9174026
2305.67; 14.285693; 1904789.4596213
2306.69; 14.459888; 1904804.1791633
2307.71; 14.535635; 1904818.9758126
2308.73; 14.514288; 1904833.7507318
2309.74; 14.406007; 1904848.4154253
2310.76; 14.227966; 1904862.8988812
2311.78; 14.001398; 1904877.1516996
2312.80; 13.747876; 1904891.1464447
2313.82; 13.485678; 1904904.8742827
2314.83; 13.227222; 1904918.3390239
2315.85; 12.978487; 1904931.5505636
2316.87; 12.740649; 1904944.5199948
2317.89; 12.513366; 1904957.2580612
2318.91; 12.29833; 1904969.7772307
2319.92; 12.10145; 1904982.0959843
2320.94; 11.932402; 1904994.2426545
2321.96; 11.801386; 1905006.2559564
2322.98; 11.714191; 1905018.1804973
2324.00; 11.66768; 1905030.0576925
2325.01; 11.64798; 1905041.9148331
2326.03; 11.632787; 1905053.7565085
2327.05; 11.597639; 1905065.5624047
2328.07; 11.524185; 1905077.293528
2329.09; 11.407398; 1905088.9057665
2330.10; 11.25866; 1905100.3665965
2331.12; 11.103011; 1905111.6689827
2332.14; 10.970987; 1905122.8369741
2333.16; 10.887696; 1905133.920179
2334.18; 10.863061; 1905144.978306
2335.19; 10.886965; 1905156.060767
2336.21; 10.931378; 1905167.1884383
2337.23; 10.958937; 1905178.3441631
2338.25; 10.93504; 1905189.4755625
2339.26; 10.83912; 1905200.5093184
2340.28; 10.671053; 1905211.3719899
2341.30; 10.450551; 1905222.0102
2342.32; 10.21; 1905232.4035389
2343.34; 9.9836955; 1905242.5665101
2344.35; 9.7976263; 1905252.5400709
2345.37; 9.6634874; 1905262.377084
2346.39; 9.5787323; 1905272.1278202
2347.41; 9.5319075; 1905281.8308906
2348.43; 9.5104188; 1905291.5120866
2349.44; 9.5070657; 1905301.1898692
2350.46; 9.5224577; 1905310.8833203
2351.48; 9.5624281; 1905320.6174594
2352.50; 9.6318873; 1905330.4223051
2353.52; 9.7282031; 1905340.3251961
2354.53; 9.8374511; 1905350.3392968
2355.55; 9.9356509; 1905360.4533607
2356.57; 9.9949248; 1905370.6277628
2357.59; 9.9923343; 1905380.799528
2358.61; 9.917911; 1905390.8955334
2359.62; 9.7786256; 1905400.8497524
2360.64; 9.5966555; 1905410.6187335
2361.66; 9.4026198; 1905420.1901947
2362.68; 9.2264907; 1905429.5823642
2363.70; 9.0897943; 1905438.8353825
2364.71; 9.0021174; 1905447.9991496
2365.73; 8.9630857; 1905457.123184
2366.75; 8.9686478; 1905466.2528804
2367.77; 9.0186682; 1905475.4334954
2368.79; 9.1222355; 1905484.7195375
2369.80; 9.2979902; 1905494.1844903
2370.82; 9.5687851; 1905503.9251006
2371.84; 9.9523103; 1905514.0561231
2372.86; 10.451015; 1905524.6948056
2373.88; 11.045098; 1905535.9382385
2374.89; 11.691353; 1905547.8395318
2375.91; 12.328697; 1905560.3896137
2376.93; 12.888953; 1905573.5100116
2377.95; 13.309853; 1905587.0588676
2378.97; 13.546675; 1905600.848798
2379.98; 13.579592; 1905614.6722366
2381.00; 13.415353; 1905628.3284876
2382.02; 13.083631; 1905641.6470595
2383.04; 12.62973; 1905654.5035793
2384.05; 12.105922; 1905666.8268854
2385.07; 11.563447; 1905678.5979751
2386.09; 11.046442; 1905689.8427759
2387.11; 10.588209; 1905700.6211162
2388.13; 10.209573; 1905711.0140215
2389.14; 9.9188407; 1905721.1109733
2390.16; 9.7129874; 1905730.9983754
2391.18; 9.5798857; 1905740.7502857
2392.20; 9.501489; 1905750.4223914
2393.22; 9.4577584; 1905760.0499813
2394.23; 9.4308037; 1905769.6501326
2395.25; 9.4084136; 1905779.2274917
2396.27; 9.3860699; 1905788.7821059
2397.29; 9.3668037; 1905798.3171078
2398.31; 9.3588194; 1905807.8439822
2399.32; 9.3714989; 1905817.3837637
2400.34; 9.4109431; 1905826.9636976
2401.36; 9.4763974; 1905836.6102613
2402.38; 9.558656; 1905846.3405606
2403.40; 9.6409283; 1905856.1546096
2404.41; 9.7019075; 1905866.0307328
2405.43; 9.7201394; 1905875.9254153
2406.45; 9.6784743; 1905885.7776845
2407.47; 9.5674443; 1905895.5169299
2408.49; 9.3868039; 1905905.0722913
2409.50; 9.145026; 1905914.3815331
2410.52; 8.8570803; 1905923.3976587
2411.54; 8.5411922; 1905932.0922238
2412.56; 8.2154104; 1905940.4551571
2413.58; 7.8947273; 1905948.4916488
2414.59; 7.5892528; 1905956.2171807
2415.61; 7.3036457; 1905963.6519768
2416.63; 7.037713; 1905970.816065
2417.65; 6.7878685; 1905977.7258222
2418.67; 6.5490087; 1905984.3924305
2419.68; 6.3163377; 1905990.8221897
2420.70; 6.0867388; 1905997.0182271
2421.72; 5.859445; 1906002.9828893
2422.74; 5.6359567; 1906008.72005
2423.76; 5.4193544; 1906014.2367189
2424.77; 5.2133002; 1906019.5436336
2425.79; 5.0210689; 1906024.654865
2426.81; 4.8448941; 1906029.5867582
2427.83; 4.6857672; 1906034.356667
2428.85; 4.5436574; 1906038.9819141
2429.86; 4.4179813; 1906043.4792285
2430.88; 4.3080918; 1906047.86468
2431.90; 4.2135957; 1906052.1539385
2432.92; 4.1344161; 1906056.3625957
2433.93; 4.0706353; 1906060.5063268
2434.95; 4.0222424; 1906064.600796
2435.97; 3.9889242; 1906068.6613487
2436.99; 3.9699908; 1906072.7026281
2438.01; 3.9644421; 1906076.7382591
2439.02; 3.9711062; 1906080.7806738
2440.04; 3.9887472; 1906084.8410463
2441.06; 4.0160596; 1906088.9292217
2442.08; 4.0515211; 1906093.0534954
2443.10; 4.0931483; 1906097.2201437
2444.11; 4.1382456; 1906101.4326992
2445.13; 4.1832628; 1906105.6910802
2446.15; 4.223863; 1906109.9907905
2447.17; 4.255271; 1906114.3224727
2448.19; 4.2729204; 1906118.6721213
2449.20; 4.2733557; 1906123.0222129
2450.22; 4.2552585; 1906127.3538825
2451.24; 4.2203852; 1906131.6500525
2452.26; 4.1741269; 1906135.8991336
2453.28; 4.1253975; 1906140.0986102
2454.29; 4.0856395; 1906144.2576149
2455.31; 4.0669484; 1906148.3975929
2456.33; 4.0795997; 1906152.5504494
2457.35; 4.129554; 1906156.7541572
2458.37; 4.2166844; 1906161.04656
2459.38; 4.3344197; 1906165.4588122
2460.40; 4.4711806; 1906170.0102811
2461.42; 4.613465; 1906174.7065894
2462.44; 4.749853; 1906179.5417348
2463.46; 4.874775; 1906184.5040454
2464.47; 4.9907827; 1906189.5844469
2465.49; 5.108388; 1906194.7845654
2466.51; 5.2432235; 1906200.1219407
2467.53; 5.4111312; 1906205.6302388
2468.55; 5.6225232; 1906211.3537248
2469.56; 5.8777213; 1906217.3369915
2470.58; 6.1648104; 1906223.6125025
2471.60; 6.4608759; 1906230.1893953
2472.62; 6.7365255; 1906237.0468875
2473.64; 6.9626338; 1906244.1345483
2474.65; 7.1175894; 1906251.3799472
2475.67; 7.1931708; 1906258.7022847
2476.69; 7.197552; 1906266.029082
2477.71; 7.1546924; 1906273.3122502
2478.72; 7.1002664; 1906280.5400149
2479.74; 7.0750592; 1906287.7421199
2480.76; 7.1172303; 1906294.9871532
2481.78; 7.2549554; 1906302.3723848
2482.80; 7.5007626; 1906310.0078375
2483.81; 7.8484955; 1906317.9972672
2484.83; 8.273382; 1906326.4192131
2485.85; 8.7352387; 1906335.3113092
2486.87; 9.1844138; 1906344.6606461
2487.89; 9.5696616; 1906354.4021487
2488.90; 9.8467688; 1906364.4257344
2489.92; 9.9864722; 1906374.5915322
2490.94; 9.980136; 1906384.7508799
2491.96; 9.8418888; 1906394.7694981
2492.98; 9.6065006; 1906404.5485012
2493.99; 9.3231383; 1906414.0390536
2495.01; 9.0460834; 1906423.2475762
2496.03; 8.8242736; 1906432.2303059
2497.05; 8.6918963; 1906441.0782812
2498.07; 8.6620826; 1906449.8959075
2499.08; 8.7250506; 1906458.7776325
2500.10; 8.8510067; 1906467.7875754
2501.12; 8.9970256; 1906476.9461592
2502.14; 9.1162777; 1906486.2261365
2503.16; 9.1675561; 1906495.558313
2504.17; 9.1231481; 1906504.8452841
2505.19; 8.9735971; 1906513.9800187
2506.21; 8.7286552; 1906522.865413
2507.23; 8.4145228; 1906531.4310341
2508.25; 8.0681512; 1906539.6440638
2509.26; 7.7298501; 1906547.5127176
2510.28; 7.4356583; 1906555.081897
2511.30; 7.21091; 1906562.4222922
2512.32; 7.0661718; 1906569.6153501
2513.34; 6.9962799; 1906576.7372612
2514.35; 6.9826029; 1906583.8452496
2515.37; 6.9979963; 1906590.9689078
2516.39; 7.0133234; 1906598.1081684
2517.41; 7.0040397; 1906605.2379786
2518.43; 6.9553078; 1906612.3181818
2519.44; 6.8644685; 1906619.3059145
2520.46; 6.7403709; 1906626.1673212
2521.48; 6.5998905; 1906632.8857249
2522.50; 6.4626974; 1906639.464472
2523.52; 6.3457618; 1906645.9241836
2524.53; 6.2590715; 1906652.2956484
2525.55; 6.2036115; 1906658.6106572
2526.57; 6.1719496; 1906664.8934356
2527.59; 6.1510289; 1906671.1549176
2528.60; 6.1261973; 1906677.3911222
2529.62; 6.0852665; 1906683.5856608
2530.64; 6.0215162; 1906689.7153045
2531.66; 5.9349673; 1906695.7568451
2532.68; 5.8317831; 1906701.6933486
2533.69; 5.7221647; 1906707.5182653
2534.71; 5.6174436; 1906713.2365805
2535.73; 5.5271899; 1906718.8630213
2536.75; 5.457048; 1906724.4180607
2537.77; 5.4077463; 1906729.9229131
2538.78; 5.3753787; 1906735.3948166
2539.80; 5.3527292; 1906740.843664
2540.82; 5.3311661; 1906746.2705611
2541.84; 5.3025411; 1906751.6683191
2542.86; 5.2605999; 1906757.0233827
2543.87; 5.201622; 1906762.3184094
2544.89; 5.1242953; 1906767.5347209
2545.91; 5.0290932; 1906772.6541208
2546.93; 4.9175675; 1906777.6599923
2547.95; 4.7919357; 1906782.5379761
2548.96; 4.6551415; 1906787.2767093
2549.98; 4.5112768; 1906791.8689944
2551.00; 4.3660088; 1906796.3134029
2552.02; 4.2265716; 1906800.6158704
2553.04; 4.1010199; 1906804.7905317
2554.05; 3.9967635; 1906808.8590645
2555.07; 3.9187732; 1906812.8482065
2556.09; 3.8680957; 1906816.785761
2557.11; 3.8413153; 1906820.6960542
2558.13; 3.8313084; 1906824.5961608
2559.14; 3.8291611; 1906828.4940815
2560.16; 3.8266503; 1906832.3894464
2561.18; 3.8184325; 1906836.2764459
2562.20; 3.8031622; 1906840.1479008
2563.22; 3.7831732; 1906843.9990079
2564.23; 3.7629198; 1906847.8294979
2565.25; 3.7468697; 1906851.6436495
2566.27; 3.7377407; 1906855.4485082
2567.29; 3.7357902; 1906859.2513815
2568.31; 3.7393757; 1906863.0579046
2569.32; 3.7464196; 1906866.871598
2570.34; 3.7559973; 1906870.6950412
2571.36; 3.7692019; 1906874.5319261
2572.38; 3.788768; 1906878.3887284
2573.39; 3.8175102; 1906882.274789
2574.41; 3.8562013; 1906886.2002356
2575.43; 3.9018261; 1906890.1721262
2576.45; 3.9470572; 1906894.1900601
2577.47; 3.9813435; 1906898.242896
2578.48; 3.9933696; 1906902.307974
2579.50; 3.9740987; 1906906.353435
2580.52; 3.9193768; 1906910.3431914
2581.54; 3.8312408; 1906914.2432292
2582.56; 3.7175526; 1906918.0275374
2583.57; 3.5901723; 1906921.6821778
2584.59; 3.4623489; 1906925.2066996
2585.61; 3.3461766; 1906928.612963
2586.63; 3.2508015; 1906931.9221386
2587.65; 3.1816818; 1906935.1609534
2588.66; 3.1407781; 1906938.35813
2589.68; 3.1272555; 1906941.5415411
2590.70; 3.1382266; 1906944.7361204
2591.72; 3.1692177; 1906947.9622473
2592.74; 3.2143083; 1906951.2342745
2593.75; 3.2661337; 1906954.5590577
2594.77; 3.3160441; 1906957.9346475
2595.79; 3.3546558; 1906961.3495424
2596.81; 3.3728576; 1906964.7829658
2597.83; 3.3631369; 1906968.2064941
2598.84; 3.3209516; 1906971.5870795
2599.86; 3.2458339; 1906974.8911983
2600.88; 3.1419744; 1906978.0895927
2601.90; 3.0181353; 1906981.1619242
2602.92; 2.8868533; 1906984.1006163
2603.93; 2.7629825; 1906986.9132132
2604.95; 2.661699; 1906989.6227079
2605.97; 2.5961737; 1906992.2655008
2606.99; 2.5752153; 1906994.8869588
2608.01; 2.6012867; 1906997.5349564
2609.02; 2.6693512; 1907000.2522407
2610.04; 2.766956; 1907003.0688826
2611.06; 2.8757819; 1907005.9963045
2612.08; 2.9745869; 1907009.0243055
2613.10; 3.0431209; 1907012.1220713
2614.11; 3.0662835; 1907015.2434156
2615.13; 3.0376362; 1907018.3355982
2616.15; 2.9614332; 1907021.3502094
2617.17; 2.8525931; 1907024.2540261
2618.19; 2.7344521; 1907027.0375803
2619.20; 2.6346175; 1907029.7195073
2620.22; 2.5796656; 1907032.3454956
2621.24; 2.5897177; 1907034.9817165
2622.26; 2.6740068; 1907037.7037399
2623.27; 2.8284049; 1907040.5829341
2624.29; 3.0355258; 1907043.6729684
2625.31; 3.2675069; 1907046.9991494
2626.33; 3.4910073; 1907050.5528442
2627.35; 3.6734409; 1907054.2922485
2628.36; 3.7891349; 1907058.1494243
2629.38; 3.8240632; 1907062.0421556
2630.40; 3.7780903; 1907065.8880885
2631.42; 3.6642392; 1907069.6181258
2632.44; 3.5052196; 1907073.1862881
2633.45; 3.3281327; 1907076.5741835
2634.47; 3.1587003; 1907079.7896042
2635.49; 3.0164209; 1907082.8601905
2636.51; 2.9117193; 1907085.8241951
2637.53; 2.8455413; 1907088.7208333
2638.54; 2.8111556; 1907091.5824684
2639.56; 2.7973798; 1907094.4300803
2640.58; 2.7922037; 1907097.2724232
2641.60; 2.7858744; 1907100.1083231
2642.62; 2.7728491; 1907102.9309638
2643.63; 2.7524535; 1907105.7328427
2644.65; 2.7284329; 1907108.5102697
2645.67; 2.707754; 1907111.2666463
2646.69; 2.6990061; 1907114.014118
2647.71; 2.7106458; 1907116.7734385
2648.72; 2.7492336; 1907119.5720397
2649.74; 2.817814; 1907122.4404527
2650.76; 2.9146774; 1907125.4074685
2651.78; 3.0328408; 1907128.4947696
2652.80; 3.1605806; 1907131.7121043
2653.81; 3.283176; 1907135.0542358
2654.83; 3.3856789; 1907138.5007108
2655.85; 3.456135; 1907142.0189071
2656.87; 3.4883958; 1907145.5699435
2657.89; 3.4836449; 1907149.1161437
2658.90; 3.4500564; 1907152.6281522
2659.92; 3.4005522; 1907156.0897676
2660.94; 3.3492361; 1907159.4991454
2661.96; 3.3075356; 1907162.8660739
2662.98; 3.2812028; 1907166.2061968
2663.99; 3.2690565; 1907169.5339553
2665.01; 3.263787; 1907172.8563496
2666.03; 3.254492; 1907176.169282
2667.05; 3.2301017; 1907179.4573862
2668.06; 3.1826495; 1907182.697186
2669.08; 3.1094972; 1907185.86252
2670.10; 3.0140446; 1907188.9306874
2671.12; 2.9049528; 1907191.887804
2672.14; 2.7943165; 1907194.7322976
2673.15; 2.6953961; 1907197.4760945
2674.17; 2.6204601; 1907200.1436098
2675.19; 2.5790672; 1907202.7689889
2676.21; 2.5768802; 1907205.3921417
2677.23; 2.6149549; 1907208.0540529
2678.24; 2.6894407; 1907210.7917875
2679.26; 2.7917309; 1907213.6336491
2680.28; 2.9092041; 1907216.5950934
2681.30; 3.0267099; 1907219.6761535
2682.32; 3.1288133; 1907222.8611504
2683.33; 3.2025489; 1907226.121207
2684.35; 3.2401506; 1907229.4195405
2685.37; 3.2410414; 1907232.7187808
2686.39; 3.2124125; 1907235.988878
2687.41; 3.1680021; 1907239.2137675
2688.42; 3.1251656; 1907242.3950512
2689.44; 3.1008387; 1907245.5515712
2690.46; 3.1073862; 1907248.7147563
2691.48; 3.1494383; 1907251.9207485
2692.50; 3.2226021; 1907255.2012185
2693.51; 3.3144446; 1907258.57518
2694.53; 3.4075142; 1907262.0438824
2695.55; 3.4836074; 1907265.5900444
2696.57; 3.5281482; 1907269.181547
2697.59; 3.5335444; 1907272.7785427
2698.60; 3.5007043; 1907276.3421086
2699.62; 3.4384291; 1907279.842281
2700.64; 3.3609773; 1907283.2636109
2701.66; 3.284548; 1907286.607139
2702.68; 3.2236347; 1907289.88866
2703.69; 3.1881237; 1907293.1340324
2704.71; 3.1817076; 1907296.3728735
2705.73; 3.2017797; 1907299.6321471
2706.75; 3.2406004; 1907302.9309385
2707.77; 3.2872822; 1907306.2772499
2708.78; 3.3300698; 1907309.6671173
2709.80; 3.3584638; 1907313.0858885
2710.82; 3.3648842; 1907316.5111954
2711.84; 3.3457241; 1907319.9169982
2712.86; 3.3017467; 1907323.2780338
2713.87; 3.2378405; 1907326.5740158
2714.89; 3.1621831; 1907329.7929817
2715.91; 3.0849101; 1907332.9332872
2716.93; 3.0164668; 1907336.0039202
2717.94; 2.9659045; 1907339.023083
2718.96; 2.9394392; 1907342.0153052
2719.98; 2.9395691; 1907345.0076597
2721.00; 2.9649277; 1907348.0258281
2722.02; 3.0108662; 1907351.0907599
2723.03; 3.0705682; 1907354.2164659
2724.05; 3.1363773; 1907357.4091627
2725.07; 3.2010165; 1907360.6676593
2726.09; 3.2584862; 1907363.9846576
2727.11; 3.3045956; 1907367.3485933
2728.12; 3.3372199; 1907370.7457391
2729.14; 3.3564188; 1907374.1624287
2730.16; 3.3644824; 1907377.5873266
2731.18; 3.3658337; 1907381.0136001
2732.20; 3.3666116; 1907384.4406654
2733.21; 3.3737622; 1907387.8750097
2734.23; 3.3936258; 1907391.3295743
2735.25; 3.4302594; 1907394.8214304
2736.27; 3.4839831; 1907398.3679749
2737.29; 3.5507225; 1907401.9824572
2738.30; 3.6225793; 1907405.6700866
2739.32; 3.689681; 1907409.4260226
2740.34; 3.7428892; 1907413.2361224
2741.36; 3.7765468; 1907417.080484
2742.38; 3.7903247; 1907420.938871
2743.39; 3.7894521; 1907424.7963697
2744.41; 3.7831442; 1907428.6474473
2745.43; 3.781684; 1907432.4970384
2746.45; 3.7931308; 1907436.3582819
2747.47; 3.8208049; 1907440.2476964
2748.48; 3.8624481; 1907444.1795019
2749.50; 3.9113737; 1907448.1611116
2750.52; 3.9591999; 1907452.1914062
2751.54; 3.9991855; 1907456.2624045
2752.56; 4.0289725; 1907460.3637246
2753.57; 4.0517513; 1907464.4882326
2754.59; 4.0754367; 1907468.6368513
2755.61; 4.1101366; 1907472.820793
2756.63; 4.1647753; 1907477.0603546
2757.65; 4.2439895; 1907481.3805528
2758.66; 4.3462773; 1907485.8048756
2759.68; 4.4639247; 1907490.3489583
2760.70; 4.5846384; 1907495.0159224
2761.72; 4.6942926; 1907499.7945097
2762.73; 4.7799193; 1907504.6602614
2763.75; 4.8321039; 1907509.5791346
2764.77; 4.8462456; 1907514.5124035
2765.79; 4.8225788; 1907519.4215805
2766.81; 4.7652596; 1907524.2724091
2767.82; 4.6810766; 1907529.0375431
2768.84; 4.5783642; 1907533.6981203
2769.86; 4.4664996; 1907538.2448242
2770.88; 4.3560325; 1907542.6790773
2771.90; 4.2591441; 1907547.0147022
2772.91; 4.1899009; 1907551.2798405
2773.93; 4.1637313; 1907555.5183393
2774.95; 4.1957611; 1907559.789443
2775.97; 4.2980292; 1907564.1646513
2776.99; 4.4760778; 1907568.7211054
2778.00; 4.7257947; 1907573.5317605
2779.02; 5.0315523; 1907578.6536636
2780.04; 5.3665309; 1907584.1165605
2781.06; 5.6956381; 1907589.9144743
2782.08; 5.9807544; 1907596.0026241
2783.09; 6.1873322; 1907602.3010613
2784.11; 6.2908806; 1907608.7049063
2785.13; 6.2817559; 1907615.0994627
2786.15; 6.1670114; 1907621.3772142
2787.17; 5.9687785; 1907627.4531731
2788.18; 5.7195419; 1907633.27542
2789.20; 5.455486; 1907638.8288694
2790.22; 5.2095812; 1907644.1319983
2791.24; 5.0060995; 1907649.2279916
2792.26; 4.8578072; 1907654.1730297
2793.27; 4.7663125; 1907659.0249302
2794.29; 4.7251801; 1907663.8349597
2795.31; 4.724707; 1907668.6445076
2796.33; 4.7568726; 1907673.4867986
2797.35; 4.8190107; 1907678.3923436
2798.36; 4.9151649; 1907683.3957693
2799.38; 5.0547532; 1907688.5412899
2800.40; 5.2489077; 1907693.8844514
2801.42; 5.5054858; 1907699.4887983
2802.44; 5.8241373; 1907705.4175188
2803.45; 6.1928669; 1907711.7215901
2804.47; 6.587236; 1907718.4271122
2805.49; 6.9727593; 1907725.5250802
2806.51; 7.310274; 1907732.9666237
2807.52; 7.5632694; 1907740.6657056
2808.54; 7.7055429; 1907748.5096158
2809.56; 7.7272904; 1907756.3756639
2810.58; 7.6379467; 1907764.1507641
2811.60; 7.464778; 1907771.749586
2812.61; 7.2472633; 1907779.1269873
2813.63; 7.0284268; 1907786.2816225
2814.65; 6.8451849; 1907793.2497253
2815.67; 6.720157; 1907800.0905552
2816.69; 6.6571087; 1907806.8672045
2817.70; 6.6412687; 1907813.6277295
2818.72; 6.6444453; 1907820.3914881
2819.74; 6.6335224; 1907827.1441276
2820.76; 6.5799755; 1907833.8422588
2821.78; 6.4677829; 1907840.4261827
2822.79; 6.2976271; 1907846.8368953
2823.81; 6.0864107; 1907853.0325987
2824.83; 5.8624914; 1907859.000362
2825.85; 5.6582415; 1907864.7602077
2826.87; 5.5021803; 1907870.3611898
2827.88; 5.4128571; 1907875.8712447
2828.90; 5.3959339; 1907881.3640725
2829.92; 5.4448281; 1907886.9066726
2830.94; 5.5441992; 1907892.5504282
2831.96; 5.6748473; 1907898.3271778
2832.97; 5.8184192; 1907904.2500775
2833.99; 5.960671; 1907910.3177833
2835.01; 6.092719; 1907916.5199084
2836.03; 6.2104436; 1907922.841872
2837.05; 6.3127448; 1907929.2679738
2838.06; 6.3995432; 1907935.7824326
2839.08; 6.4702903; 1907942.3689089
2840.10; 6.5234129; 1907949.0094617
2841.12; 6.5567295; 1907955.6839294
2842.14; 6.5685733; 1907962.3704535
2843.15; 6.5591912; 1907969.0474271
2844.17; 6.5319575; 1907975.696678
2845.19; 6.4939933; 1907982.307283
2846.21; 6.4558993; 1907988.8791099
2847.23; 6.4304716; 1907995.4250524
2848.24; 6.4305045; 1908001.9710285
2849.26; 6.4660649; 1908008.5532036
2850.28; 6.5418967; 1908015.2125722
2851.30; 6.6557634; 1908021.9878521
2852.32; 6.7984396; 1908028.9083702
2853.33; 6.9556682; 1908035.9889403
2854.35; 7.111769; 1908043.2284142
2855.37; 7.2539239; 1908050.6125958
2856.39; 7.3757446; 1908058.1207855
2857.40; 7.4787744; 1908065.7338551
2858.42; 7.5711742; 1908073.4409837
2859.44; 7.6638252; 1908081.2424271
2860.46; 7.7651074; 1908089.1469714
2861.48; 7.8762617; 1908097.164666
2862.49; 7.989203; 1908105.2973299
2863.51; 8.0878613; 1908113.5304237
2864.53; 8.1528451; 1908121.8296682
2865.55; 8.1679205; 1908130.1442589
2866.57; 8.1260119; 1908138.4161883
2867.58; 8.0324895; 1908146.592916
2868.60; 7.904446; 1908154.639301
2869.62; 7.7661184; 1908162.5448743
2870.64; 7.6420399; 1908170.3241412
2871.66; 7.5503339; 1908178.0100553
2872.67; 7.4984722; 1908185.6431764
2873.69; 7.4828643; 1908193.2604094
2874.71; 7.4922018; 1908200.8871475
2875.73; 7.5131347; 1908208.5351944
2876.75; 7.5361115; 1908216.2066307
2877.76; 7.5593141; 1908223.9016862
2878.78; 7.5894621; 1908231.6274312
2879.80; 7.63946; 1908239.4040718
2880.82; 7.7239275; 1908247.2666967
2881.84; 7.8542143; 1908255.2619479
2882.85; 8.0344232; 1908263.440644
2883.87; 8.259413; 1908271.84837
2884.89; 8.5150207; 1908280.5162937
2885.91; 8.7801643; 1908289.4541221
2886.93; 9.030217; 1908298.6464933
2887.94; 9.2410552; 1908308.0534888
2888.96; 9.3933017; 1908317.6154646
2889.98; 9.4763122; 1908327.2619414
2891.00; 9.4913268; 1908336.9237026
2892.02; 9.4530042; 1908346.5464529
2893.03; 9.3885043; 1908356.1035452
2894.05; 9.3335928; 1908365.6047399
2895.07; 9.3259544; 1908375.098159
2896.09; 9.3968752; 1908384.6637725
2897.11; 9.5633043; 1908394.3988036
2898.12; 9.8226443; 1908404.3978316
2899.14; 10.15217; 1908414.7323029
2900.16; 10.513771; 1908425.4348684
2901.18; 10.863079; 1908436.4930143
2902.19; 11.160575; 1908447.8539978
2903.21; 11.381462; 1908459.439835
2904.23; 11.521362; 1908471.1680842
2905.25; 11.596109; 1908482.9724229
2906.27; 11.635789; 1908494.8171539
2907.28; 11.674958; 1908506.701757
2908.30; 11.742159; 1908518.6547679
2909.32; 11.851969; 1908530.7195608
2910.34; 12.00188; 1908542.9369572
2911.36; 12.174686; 1908555.3302627
2912.37; 12.345255; 1908567.8971999
2913.39; 12.489256; 1908580.6107234
2914.41; 12.59092; 1908593.4277371
2915.43; 12.647437; 1908606.3022827
2916.45; 12.668803; 1908619.198577
2917.46; 12.673532; 1908632.0996854
2918.48; 12.681998; 1908645.0094125
2919.50; 12.709903; 1908657.9475448
2920.52; 12.764268; 1908670.9410189
2921.54; 12.843438; 1908684.0150842
2922.55; 12.941079; 1908697.1885437
2923.57; 13.052688; 1908710.475617
2924.59; 13.181996; 1908723.89432
2925.61; 13.344415; 1908737.4783589
2926.63; 13.565476; 1908751.2874277
2927.64; 13.873794; 1908765.4103517
2928.66; 14.290173; 1908779.9571317
2929.68; 14.816124; 1908795.039307
2930.70; 15.425882; 1908810.7421897
2931.72; 16.065345; 1908827.0960175
2932.73; 16.659429; 1908844.0545972
2933.75; 17.126626; 1908861.488763
2934.77; 17.396977; 1908879.1981351
2935.79; 17.428262; 1908896.9393539
2936.81; 17.215488; 1908914.4639779
2937.82; 16.790854; 1908931.5563424
2938.84; 16.214487; 1908948.0619904
2939.86; 15.559349; 1908963.9007364
2940.88; 14.895533; 1908979.0637458
2941.90; 14.279055; 1908993.5992077
2942.91; 13.748189; 1909007.5942706
2943.93; 13.327191; 1909021.1607755
2944.95; 13.034307; 1909034.4291373
2945.97; 12.889333; 1909047.5499225
2946.99; 12.916462; 1909060.6983235
2948.00; 13.140421; 1909074.0747048
2949.02; 13.577032; 1909087.8955377
2950.04; 14.221929; 1909102.3728481
2951.06; 15.04222; 1909117.6851791
2952.07; 15.974946; 1909133.9469847
2953.09; 16.933743; 1909151.1848045
2954.11; 17.822204; 1909169.3270393
2955.13; 18.550281; 1909188.210425
2956.15; 19.049412; 1909207.6019043
2957.16; 19.282955; 1909227.2311199
2958.18; 19.250377; 1909246.8271733
2959.20; 18.985526; 1909266.1536196
2960.22; 18.550464; 1909285.0371918
2961.24; 18.026558; 1909303.3874498
2962.25; 17.504031; 1909321.2057977
2963.27; 17.070721; 1909338.5830553
2964.29; 16.800757; 1909355.6855005
2965.31; 16.744386; 1909372.7305629
2966.33; 16.92088; 1909389.9552888
2967.34; 17.316534; 1909407.5827727
2968.36; 17.888987; 1909425.7929899
2969.38; 18.577367; 1909444.7039479
2970.40; 19.31577; 1909464.3665686
2971.42; 20.046375; 1909484.7729134
2972.43; 20.728585; 1909505.873718
2973.45; 21.342223; 1909527.5991805
2974.47; 21.885168; 1909549.8773373
2975.49; 22.367776; 1909572.6467677
2976.51; 22.807088; 1909595.8633992
2977.52; 23.222778; 1909619.503185
2978.54; 23.634809; 1909643.5624003
2979.56; 24.061127; 1909668.0555895
2980.58; 24.513544; 1909693.0093193
2981.60; 24.991689; 1909718.4497807
2982.61; 25.477716; 1909744.3849959
2983.63; 25.936521; 1909770.787255
2984.65; 26.325967; 1909797.585953
2985.67; 26.618076; 1909824.6820056
2986.69; 26.8265; 1909851.9902246
2987.70; 27.030075; 1909879.5056742
2988.72; 27.380111; 1909907.3774459
2989.74; 28.082159; 1909935.9638722
2990.76; 29.351309; 1909965.8422381
2991.78; 31.350869; 1909997.7560698
2992.79; 34.133175; 1910032.5021686
2993.81; 37.604052; 1910070.7814703
2994.83; 41.526944; 1910113.0541077
2995.85; 45.570165; 1910159.4425697
2996.86; 49.385499; 1910209.7148763
2997.88; 52.694496; 1910263.3555995
2998.90; 55.355209; 1910319.7048136
2999.92; 57.388644; 1910378.1239765
3000.94; 58.958568; 1910438.1412546
3001.95; 60.314762; 1910499.5390792
3002.97; 61.721766; 1910562.3691734
3003.99; 63.397873; 1910626.9054726
3005.01; 65.481727; 1910693.5630454
3006.03; 68.03008; 1910762.8147307
3007.04; 71.036345; 1910835.1266642
3008.06; 74.451937; 1910910.9155237
3009.08; 78.194366; 1910990.5140139
3010.10; 82.136578; 1911074.1255063
3011.12; 86.085942; 1911161.75728
3012.13; 89.771515; 1911253.1408083
3013.15; 92.859453; 1911347.6677243
3014.17; 95.006889; 1911444.3806379
3015.19; 95.94787; 1911542.0514295
3016.21; 95.587798; 1911639.3556829
3017.22; 94.073015; 1911735.1179532
3018.24; 91.804725; 1911828.5712017
3019.26; 89.381559; 1911919.5577723
3020.28; 87.478001; 1912008.6066022
3021.30; 86.688288; 1912096.8515389
3022.31; 87.379255; 1912185.7998501
3023.33; 89.595429; 1912277.0041309
3024.35; 93.045481; 1912371.7204156
3025.37; 97.175373; 1912470.6407521
3026.39; 101.30816; 1912573.7680846
3027.40; 104.81139; 1912680.461558
3028.42; 107.24618; 1912789.6335447
3029.44; 108.45851; 1912900.0396326
3030.46; 108.59097; 1913010.5805556
3031.48; 108.0157; 1913120.5358732
3032.49; 107.21058; 1913229.6716187
3033.51; 106.61479; 1913338.2008755
3034.53; 106.50342; 1913446.6167618
3035.55; 106.91416; 1913555.4507644
3036.57; 107.64364; 1913665.0273477
3037.58; 108.3119; 1913775.2841874
3038.60; 108.47521; 1913885.70727
3039.62; 107.755; 1913995.39721
3040.64; 105.94683; 1914103.2465101
3041.66; 103.07968; 1914208.1771768
3042.67; 99.410241; 1914309.3725119
3043.69; 95.355598; 1914406.4403962
3044.71; 91.385431; 1914499.4668216
3045.73; 87.905957; 1914588.9512922
3046.74; 85.169231; 1914675.6498943
3047.76; 83.23231; 1914760.3767943
3048.78; 81.974324; 1914843.8231192
3049.80; 81.161155; 1914926.441673
3050.82; 80.533274; 1915008.4210704
3051.83; 79.887086; 1915089.7426768
3052.85; 79.12517; 1915170.2886853
3053.87; 78.263782; 1915249.9578377
3054.89; 77.401812; 1915328.7495422
3055.91; 76.668075; 1915406.7943337
3056.92; 76.169063; 1915484.3311535
3057.94; 75.95589; 1915561.6509721
3058.96; 76.019215; 1915639.0352525
3059.98; 76.309133; 1915716.714657
3061.00; 76.767991; 1915794.8611596
3062.01; 77.361086; 1915873.6114073
3063.03; 78.093492; 1915953.1072127
3064.05; 79.008534; 1916033.534491
3065.07; 80.171075; 1916115.1451856
3066.09; 81.643631; 1916198.2548789
3067.10; 83.463995; 1916283.2176242
3068.12; 85.630328; 1916370.3856034
3069.14; 88.095772; 1916460.0632977
3070.16; 90.771788; 1916552.4650613
3071.18; 93.538754; 1916647.683477
3072.19; 96.263157; 1916745.6752171
3073.21; 98.821374; 1916846.2711114
3074.23; 101.12876; 1916949.2158289
3075.25; 103.16933; 1917054.2377554
3076.27; 105.01699; 1917161.1405224
3077.28; 106.83728; 1917269.8962662
3078.30; 108.86065; 1917380.7117107
3079.32; 111.32629; 1917494.037065
3080.34; 114.40666; 1917610.498112
3081.36; 118.13361; 1917730.753029
3082.37; 122.35166; 1917855.3017387
3083.39; 126.72044; 1917984.2976752
3084.41; 130.77442; 1918117.4203928
3085.43; 134.02971; 1918253.8568587
3086.45; 136.10964; 1918392.4106023
3087.46; 136.85119; 1918531.7192081
3088.48; 136.35681; 1918670.5245581
3089.50; 134.9713; 1918807.9195156
3090.52; 133.18642; 1918943.4975469
3091.53; 131.49957; 1919077.3584337
3092.55; 130.26828; 1919209.9659206
3093.57; 129.60521; 1919341.8984308
3094.59; 129.34636; 1919473.5674431
3095.61; 129.10342; 1919604.9891542
3096.62; 128.38567; 1919735.6802311
3097.64; 126.7561; 1919864.7124716
3098.66; 123.97624; 1919990.9149318
3099.68; 120.09765; 1920113.169154
3100.70; 115.47301; 1920230.7156919
3101.71; 110.68239; 1920343.3855934
3102.73; 106.39373; 1920451.6898172
3103.75; 103.19445; 1920556.7373193
3104.77; 101.43976; 1920659.9986153
3105.79; 101.15866; 1920762.9737659
3106.80; 102.04445; 1920866.8506081
3107.82; 103.53329; 1920972.2430271
3108.84; 104.95072; 1921079.0783349
3109.86; 105.68616; 1921186.6622809
3110.88; 105.34672; 1921293.9007006
3111.89; 103.84704; 1921399.6125049
3112.91; 101.4097; 1921502.8432039
3113.93; 98.478512; 1921603.0900799
3114.95; 95.573488; 1921700.3797666
3115.97; 93.135324; 1921795.1875078
3116.98; 91.410028; 1921888.2389716
3118.00; 90.410114; 1921980.2725667
3119.02; 89.961552; 1922071.8495444
3120.04; 89.814749; 1922163.2770835
3121.06; 89.774658; 1922254.6638111
3122.07; 89.798306; 1922346.0746112
3123.09; 90.020813; 1922437.7119146
3124.11; 90.698676; 1922530.0392531
3125.13; 92.091528; 1922623.784455
3126.15; 94.328254; 1922719.806547
3127.16; 97.310581; 1922818.8645193
3128.18; 100.69418; 1922921.3668476
3129.20; 103.9587; 1923027.1923168
3130.22; 106.54507; 1923135.6506018
3131.24; 108.0133; 1923245.6034799
3132.25; 108.1664; 1923355.7122124
3133.27; 107.09857; 1923464.7339344
3134.29; 105.15286; 1923571.7750096
3135.31; 102.80566; 1923676.4267395
3136.33; 100.5194; 1923778.7511504
3137.34; 98.61387; 1923879.1358147
3138.36; 97.197374; 1923978.0785476
3139.38; 96.176013; 1924075.9815786
3140.40; 95.33219; 1924173.0256347
3141.41; 94.44091; 1924269.1624058
3142.43; 93.382139; 1924364.2213936
3143.45; 92.211588; 1924458.0888114
3144.47; 91.167972; 1924550.8938729
3145.49; 90.616105; 1924643.1371571
3146.50; 90.944959; 1924735.7152008
3147.52; 92.452351; 1924829.8277048
3148.54; 95.250348; 1924926.7884488
3149.56; 99.218148; 1925027.7882416
3150.58; 104.01493; 1925133.670952
3151.59; 109.14839; 1925244.7792985
3152.61; 114.07989; 1925360.9076995
3153.63; 118.33831; 1925481.3709877
3154.65; 121.6134; 1925605.1681838
3155.67; 123.80642; 1925731.1977746
3156.68; 125.02798; 1925858.4708581
3157.70; 125.54782; 1925986.2731196
3158.72; 125.71305; 1926114.2435833
3159.74; 125.85804; 1926242.3616413
3160.76; 126.22839; 1926370.8566992
3161.77; 126.93459; 1926500.0706297
3162.79; 127.94089; 1926630.3089301
3163.81; 129.08583; 1926761.7127299
3164.83; 130.12487; 1926894.17423
3165.85; 130.78455; 1927027.307263
3166.86; 130.81921; 1927160.4755701
3167.88; 130.0635; 1927292.8745999
3168.90; 128.47492; 1927423.6565205
3169.92; 126.15885; 1927552.0807847
3170.94; 123.36789; 1927677.6639718
3171.95; 120.46849; 1927800.2956981
3172.97; 117.87481; 1927920.287169
3173.99; 115.96037; 1928038.3298214
3175.01; 114.96965; 1928155.3639601
3176.03; 114.95782; 1928272.3860577
3177.04; 115.78311; 1928390.2482634
3178.06; 117.16126; 1928509.5133675
3179.08; 118.76977; 1928630.4158645
3180.10; 120.36884; 1928752.9461447
3181.12; 121.89587; 1928877.030884
3182.13; 123.49647; 1929002.7449616
3183.15; 125.47643; 1929130.4745545
3184.17; 128.18898; 1929260.9654011
3185.19; 131.89663; 1929395.2304811
3186.20; 136.65789; 1929534.3423176
3187.22; 142.27932; 1929679.1765258
3188.24; 148.34815; 1929830.1885364
3189.26; 154.32932; 1929987.2891229
3190.28; 159.68794; 1930149.8445592
3191.29; 163.99267; 1930316.7820205
3192.31; 166.96963; 1930486.7498967
3193.33; 168.50249; 1930658.2781642
3194.35; 168.59915; 1930829.9048201
3195.37; 167.35714; 1931000.2671672
3196.38; 164.95321; 1931168.1824132
3197.40; 161.66043; 1931332.7457601
3198.42; 157.87245; 1931493.453102
3199.44; 154.10053; 1931650.3207944
3200.46; 150.91594; 1931803.9467068
3201.47; 148.83445; 1931955.4537533
3202.49; 148.17241; 1932106.2868753
3203.51; 148.92718; 1932257.8883168
3204.53; 150.73663; 1932411.3316993
3205.55; 152.94858; 1932567.0267583
3206.56; 154.78965; 1932724.5959408
3207.58; 155.58158; 1932882.9712738
3208.60; 154.93048; 1933040.6838119
3209.62; 152.82099; 1933196.2489815
3210.64; 149.58315; 1933348.5181695
3211.65; 145.74908; 1933496.8844397
3212.67; 141.85969; 1933641.2914832
3213.69; 138.29936; 1933782.0742624
3214.71; 135.2215; 1933919.7239162
3215.73; 132.58698; 1934054.6917395
3216.74; 130.28782; 1934187.3191177
3217.76; 128.29287; 1934317.9157226
3218.78; 126.74452; 1934446.9361696
3219.80; 125.95944; 1934575.1574481
3220.82; 126.33025; 1934703.7561914
3221.83; 128.16899; 1934834.2266883
3222.85; 131.55921; 1934968.1482912
3223.87; 136.27928; 1935106.8747169
3224.89; 141.82902; 1935251.2505405
3225.91; 147.54911; 1935401.4491642
3226.92; 152.7855; 1935556.9782054
3227.94; 157.0365; 1935716.8345825
3228.96; 160.03155; 1935879.7397979
3229.98; 161.72257; 1936044.3663924
3231.00; 162.20542; 1936209.4845152
3232.01; 161.61531; 1936374.0019229
3233.03; 160.04431; 1936536.9201228
3234.05; 157.51366; 1936697.2622303
3235.07; 154.0044; 1936854.032064
3236.08; 149.52343; 1937006.2404595
3237.10; 144.16782; 1937152.997082
3238.12; 138.15448; 1937293.6323841
3239.14; 131.80032; 1937427.7994187
3240.16; 125.4615; 1937555.513814
3241.17; 119.45739; 1937677.1162809
3242.19; 114.00884; 1937793.1723585
3243.21; 109.21166; 1937904.3451203
3244.23; 105.04892; 1938011.2803915
3245.25; 101.42972; 1938114.5314708
3246.26; 98.234044; 1938214.5294885
3247.28; 95.345508; 1938311.5871017
3248.30; 92.664237; 1938405.9152962
3249.32; 90.104144; 1938497.637427
3250.34; 87.58649; 1938586.7966941
3251.35; 85.041168; 1938673.3649331
3252.37; 82.419838; 1938757.2647719
3253.39; 79.715136; 1938838.4113406
3254.41; 76.973464; 1938916.7670049
3255.43; 74.289182; 1938992.390187
3256.44; 71.775593; 1939065.4546438
3257.46; 69.5195; 1939136.2224945
3258.48; 67.535908; 1939204.9711345
3259.50; 65.742628; 1939271.8942931
3260.52; 63.969128; 1939337.0121049
3261.53; 62.001739; 1939400.1272
3262.55; 59.652978; 1939460.8513574
3263.57; 56.832151; 1939518.7040345
3264.59; 53.592009; 1939573.2583866
3265.61; 50.13316; 1939624.2917803
3266.62; 46.761904; 1939671.893381
3267.64; 43.813011; 1939716.4931353
3268.66; 41.561068; 1939758.8005093
3269.68; 40.148052; 1939799.6694935
3270.70; 39.549422; 1939839.929098
3271.71; 39.588373; 1939880.2283535
3272.73; 39.992268; 1939920.9387565
3273.75; 40.472119; 1939962.1376277
3274.77; 40.799595; 1940003.6698544
3275.79; 40.858158; 1940045.2616957
3276.80; 40.654691; 1940086.6464169
3277.82; 40.291562; 1940127.6614885
3278.84; 39.911968; 1940168.2901497
3279.86; 39.639173; 1940208.6411168
3280.87; 39.530584; 1940248.881546
3281.89; 39.560794; 1940289.1527276
3282.91; 39.636429; 1940329.5009017
3283.93; 39.634208; 1940369.8468156
3284.95; 39.446007; 1940410.0011488
3285.96; 39.013531; 1940449.71524
3286.98; 38.340578; 1940488.7442941
3288.00; 37.48035; 1940526.8976729
3289.02; 36.505186; 1940564.0583774
3290.04; 35.472561; 1940600.1679135
3291.05; 34.401881; 1940635.1875437
3292.07; 33.271566; 1940669.0565625
3293.09; 32.037222; 1940701.6690723
3294.11; 30.663058; 1940732.8827417
3295.13; 29.15339; 1940762.5596346
3296.14; 27.571081; 1940790.6258057
3297.16; 26.034855; 1940817.1281652
3298.18; 24.695454; 1940842.2670719
3299.20; 23.698336; 1940866.3909549
3300.22; 23.145189; 1940889.9517585
3301.23; 23.066503; 1940913.4324633
3302.25; 23.413131; 1940937.2660207
3303.27; 24.068208; 1940961.7664182
3304.29; 24.874453; 1940987.0875375
3305.31; 25.667973; 1941013.2164261
3306.32; 26.309161; 1941039.998017
3307.34; 26.703663; 1941067.1811941
3308.36; 26.810374; 1941094.4729974
3309.38; 26.637276; 1941121.5885955
3310.40; 26.228553; 1941148.2881303
3311.41; 25.647323; 1941174.3959982
3312.43; 24.958112; 1941199.8022791
3313.45; 24.212262; 1941224.4493172
3314.47; 23.438668; 1941248.3088702
3315.49; 22.641464; 1941271.356903
3316.50; 21.805382; 1941293.5538411
3317.52; 20.908111; 1941314.8373954
3318.54; 19.936998; 1941335.1323991
3319.56; 18.905521; 1941354.3774033
3320.58; 17.863763; 1941372.5619429
3321.59; 16.897792; 1941389.7631658
3322.61; 16.115503; 1941406.1680523
3323.63; 15.620796; 1941422.0693485
3324.65; 15.482486; 1941437.8298509
3325.67; 15.707393; 1941453.8192993
3326.68; 16.227193; 1941470.3378812
3327.70; 16.905311; 1941487.5467583
3328.72; 17.564257; 1941505.4264142
3329.74; 18.02709; 1941523.7772142
3330.75; 18.161615; 1941542.2649547
3331.77; 17.914256; 1941560.5008945
3332.79; 17.323157; 1941578.1351204
3333.81; 16.50617; 1941594.9376889
3334.83; 15.627084; 1941610.8453857
3335.84; 14.850083; 1941625.9621291
3336.86; 14.295921; 1941640.5147603
3337.88; 14.01243; 1941654.7788092
3338.90; 13.967205; 1941668.9968216
3339.92; 14.063313; 1941683.3126669
3340.93; 14.171898; 1941697.7390474
3341.95; 14.171012; 1941712.1645266
3342.97; 13.978952; 1941726.3944961
3343.99; 13.573083; 1941740.2113085
3345.01; 12.990309; 1941753.4348828
3346.02; 12.311132; 1941765.9670837
3347.04; 11.633836; 1941777.8098266
3348.06; 11.047381; 1941789.0555837
3349.08; 10.610739; 1941799.8568582
3350.10; 10.343399; 1941810.3859917
3351.11; 10.227743; 1941820.7973927
3352.13; 10.220457; 1941831.2013767
3353.15; 10.268042; 1941841.6538007
3354.17; 10.321349; 1941852.1604889
3355.19; 10.345453; 1941862.6917139
3356.20; 10.323487; 1941873.2005784
3357.22; 10.255218; 1941883.6399477
3358.24; 10.152546; 1941893.9748015
3359.26; 10.034354; 1941904.1893411
3360.28; 9.9224145; 1941914.2899309
3361.29; 9.8388418; 1941924.3054473
3362.31; 9.8044778; 1941934.2859826
3363.33; 9.8370604; 1941944.2996857
3364.35; 9.9482886; 1941954.4266142
3365.37; 10.139753; 1941964.7484449
3366.38; 10.398773; 1941975.333947
3367.40; 10.695956; 1941986.2219684
3368.42; 10.986336; 1941997.4055844
3369.44; 11.215192; 1942008.8221663
3370.46; 11.328172; 1942020.3537569
3371.47; 11.283728; 1942031.8401054
3372.49; 11.064618; 1942043.1034093
3373.51; 10.684905; 1942053.9801814
3374.53; 10.189723; 1942064.3528796
3375.54; 9.6469638; 1942074.1730725
3376.56; 9.1324087; 1942083.4694705
3377.58; 8.7120076; 1942092.3379183
3378.60; 8.4261831; 1942100.9154092
3379.62; 8.2807728; 1942109.3448785
3380.63; 8.2474672; 1942117.7404442
3381.65; 8.2738349; 1942126.1628511
3382.67; 8.3000868; 1942134.6119813
3383.69; 8.2775758; 1942143.0381963
3384.71; 8.1833974; 1942151.3685416
3385.72; 8.0266012; 1942159.5392753
3386.74; 7.8441268; 1942167.5242579
3387.76; 7.6878081; 1942175.3501148
3388.78; 7.6066016; 1942183.093307
3389.80; 7.6296658; 1942190.8599776
3390.81; 7.7555819; 1942198.7548253
3391.83; 7.9509891; 1942206.8485892
3392.85; 8.1589049; 1942215.1540023
3393.87; 8.3140077; 1942223.6173035
3394.89; 8.3601413; 1942232.1275665
3395.90; 8.2648489; 1942240.540826
3396.92; 8.026925; 1942248.7118893
3397.94; 7.6752858; 1942256.5249991
3398.96; 7.2601128; 1942263.9154806
3399.98; 6.8393436; 1942270.8776373
3400.99; 6.4645882; 1942277.4583091
3402.01; 6.1702468; 1942283.7393541
3403.03; 5.9682606; 1942289.8147858
3404.05; 5.8490758; 1942295.7688925
3405.07; 5.787672; 1942301.6604929
3406.08; 5.7523652; 1942307.5161525
3407.10; 5.7137622; 1942313.3325159
3408.12; 5.6516464; 1942319.085648
3409.14; 5.5584524; 1942324.7439127
3410.16; 5.4390169; 1942330.2805972
3411.17; 5.3071992; 1942335.683097
3412.19; 5.1805857; 1942340.9567096
3413.21; 5.0747719; 1942346.1226085
3414.23; 4.998675; 1942351.2110439
3415.25; 4.9520066; 1942356.2519729
3416.26; 4.9255008; 1942361.2659202
3417.28; 4.9038066; 1942366.2577837
3418.30; 4.8702571; 1942371.2154953
3419.32; 4.8121731; 1942376.1140798
3420.34; 4.7251249; 1942380.924053
3421.35; 4.6147931; 1942385.6217133
3422.37; 4.4957229; 1942390.1981652
3423.39; 4.387208; 1942394.6641536
3424.41; 4.3074787; 1942399.0489811
3425.42; 4.2679748; 1942403.3935952
3426.44; 4.2695212; 1942407.7397835
3427.46; 4.30165; 1942412.1186776
3428.48; 4.345291; 1942416.5419964
3429.50; 4.3779543; 1942420.998565
3430.51; 4.3797341; 1942425.4569453
3431.53; 4.3382606; 1942429.8731074
3432.55; 4.2511794; 1942434.2006246
3433.57; 4.1256533; 1942438.4003616
3434.59; 3.9754011; 1942442.4471484
3435.60; 3.8165355; 1942446.3322169
3436.62; 3.6636704; 1942450.0616752
3437.64; 3.5274237; 1942453.6524404
3438.66; 3.4137278; 1942457.1274679
3439.68; 3.3246078; 1942460.5117752
3440.69; 3.2596076; 1942463.8299151
3441.71; 3.2169977; 1942467.1046799
3442.73; 3.1942512; 1942470.3562898
3443.75; 3.1878132; 1942473.6013461
3444.77; 3.1926368; 1942476.8513125
3445.78; 3.2021048; 1942480.110917
3446.80; 3.2087499; 1942483.3772859
3447.82; 3.2057367; 1942486.6405875
3448.84; 3.1886168; 1942489.8864618
3449.86; 3.1566359; 1942493.0997809
3450.87; 3.1129777; 1942496.2686579
3451.89; 3.0637392; 1942499.3874122
3452.91; 3.0159531; 1942502.4575223
3453.93; 2.9753853; 1942505.4863361
3454.95; 2.9449325; 1942508.4841503
3455.96; 2.9242028; 1942511.4608625
3456.98; 2.9103652; 1942514.4234887
3458.00; 2.8998312; 1942517.3753917
3459.02; 2.889995; 1942520.3172819
3460.04; 2.8802624; 1942523.2492647
3461.05; 2.8719279; 1942526.1727634
3462.07; 2.8669795; 1942529.0912249
3463.09; 2.8663975; 1942532.0090938
3464.11; 2.8687632; 1942534.9293709
3465.13; 2.8698978; 1942537.8508031
3466.14; 2.8638454; 1942540.7660741
3467.16; 2.8449588; 1942543.6621194
3468.18; 2.8103634; 1942546.522948
3469.20; 2.7618483; 1942549.3343904
3470.21; 2.7063711; 1942552.0893594
3471.23; 2.6548067; 1942554.7918381
3472.25; 2.6191723; 1942557.4580425
3473.27; 2.609106; 1942560.1139999
3474.29; 2.6286661; 1942562.7898685
3475.30; 2.6744605; 1942565.5123539
3476.32; 2.7357283; 1942568.2972072
3477.34; 2.79641; 1942571.1438319
3478.36; 2.8386597; 1942574.033465
3479.38; 2.8468501; 1942576.9314355
3480.39; 2.8110248; 1942579.7929374
3481.41; 2.7289613; 1942582.5709023
3482.43; 2.6064437; 1942585.2241495
3483.45; 2.4558464; 1942587.7240951
3484.47; 2.2935391; 1942590.0588189
3485.48; 2.1368337; 1942592.2340234
3486.50; 2.0011707; 1942594.2711288
3487.52; 1.8980338; 1942596.2032453
3488.54; 1.8337995; 1942598.0699741
3489.56; 1.8094687; 1942599.9119352
3490.57; 1.8210839; 1942601.76572
3491.59; 1.8606078; 1942603.6597385
3492.61; 1.9171062; 1942605.6112699
3493.63; 1.9781608; 1942607.6249522
3494.65; 2.0314736; 1942609.6929046
3495.66; 2.0665853; 1942611.7965993
3496.68; 2.0765267; 1942613.9104139
3497.70; 2.0591117; 1942616.0065008
3498.72; 2.0175334; 1942618.0602627
3499.74; 1.9599844; 1942620.0554422
3500.75; 1.898209; 1942621.9877371
3501.77; 1.8451598; 1942623.8660302
3502.79; 1.8122038; 1942625.7107755
3503.81; 1.8065081; 1942627.5497228
3504.83; 1.8292624; 1942629.411833
3505.84; 1.8752355; 1942631.3207418
3506.86; 1.9338434; 1942633.2893109
3507.88; 1.9915141; 1942635.3165863
3508.90; 2.0347696; 1942637.387894
3509.92; 2.0532363; 1942639.478
3510.93; 2.0417968; 1942641.556461
3511.95; 2.0013358; 1942643.5937345
3512.97; 1.937937; 1942645.5664707
3513.99; 1.8608415; 1942647.4607271
3515.00; 1.7798404; 1942649.2725278
3516.02; 1.7029187; 1942651.0060256
3517.04; 1.6348456; 1942652.6702278
3518.06; 1.5770568; 1942654.2756036
3519.08; 1.5287085; 1942655.8317629
3520.09; 1.4883773; 1942657.3468668
3521.11; 1.4556681; 1942658.8286741
3522.13; 1.4320688; 1942660.2864583
3523.15; 1.4207064; 1942661.7326761
3524.17; 1.4251129; 1942663.1833795
3525.18; 1.4475105; 1942664.6568827
3526.20; 1.4873193; 1942666.1709096
3527.22; 1.5405105; 1942667.7390828
3528.24; 1.6000961; 1942669.3679116
3529.26; 1.6576091; 1942671.0552862
3530.27; 1.7050572; 1942672.7909608
3531.29; 1.7366739; 1942674.5588198
3532.31; 1.7499049; 1942676.3401475
3533.33; 1.7453875; 1942678.1168767
3534.35; 1.7260721; 1942679.8739436
3535.36; 1.6959316; 1942681.6003289
3536.38; 1.6587855; 1942683.2889009
3537.40; 1.6176249; 1942684.9355733
3538.42; 1.5745369; 1942686.5383839
3539.44; 1.5310361; 1942688.0969126
3540.45; 1.4884546; 1942689.6120951
3541.47; 1.4480792; 1942691.0861772
3542.49; 1.4109244; 1942692.5224374
3543.51; 1.3772829; 1942693.9244519
3544.53; 1.3463696; 1942695.2949981
3545.54; 1.3163726; 1942696.6350086
3546.56; 1.2850468; 1942697.9431308
3547.58; 1.2507103; 1942699.2162998
3548.60; 1.2132631; 1942700.4513493
3549.62; 1.1747691; 1942701.6472136
3550.63; 1.1392647; 1942702.8069359
3551.65; 1.1117534; 1942703.9386529
3552.67; 1.0966785; 1942705.0550242
3553.69; 1.096407; 1942706.1711192
3554.71; 1.1102875; 1942707.301344
3555.72; 1.134656; 1942708.4563748
3556.74; 1.1638203; 1942709.6410937
3557.76; 1.1916964; 1942710.8541892
3558.78; 1.2135364; 1942712.0895169
3559.80; 1.2271637; 1942713.3387166
3560.81; 1.2333238; 1942714.5941871
3561.83; 1.2350788; 1942715.8514439
3562.85; 1.2365045; 1942717.1101521
3563.87; 1.2411653; 1942718.3736049
3564.88; 1.2508753; 1942719.646942
3565.90; 1.265116; 1942720.9347754
3566.92; 1.2812308; 1942722.2390131
3567.94; 1.2952616; 1942723.5575335
3568.96; 1.3031097; 1942724.884043
3569.97; 1.3016555; 1942726.2090721
3570.99; 1.2895358; 1942727.5217639
3572.01; 1.2674283; 1942728.8119513
3573.03; 1.237849; 1942730.0720281
3574.05; 1.2045941; 1942731.2982529
3575.06; 1.1720136; 1942732.4913121
3576.08; 1.1442923; 1942733.6561523
3577.10; 1.1248656; 1942734.8012169
3578.12; 1.1160296; 1942735.9372869
3579.14; 1.1187486; 1942737.0761246
3580.15; 1.1326304; 1942738.2290935
3581.17; 1.1560266; 1942739.4058787
3582.19; 1.1862202; 1942740.6133997
3583.21; 1.219676; 1942741.8549772
3584.23; 1.2523438; 1942743.1298092
3585.24; 1.2800108; 1942744.432805
3586.26; 1.2987035; 1942745.7548292
3587.28; 1.3051267; 1942747.0833919
3588.30; 1.2971053; 1942748.4037891
3589.32; 1.2739701; 1942749.7006357
3590.33; 1.2368044; 1942750.9596492
3591.35; 1.1884674; 1942752.1694577
3592.37; 1.1333315; 1942753.3231402
3593.39; 1.0767272; 1942754.4192021
3594.41; 1.0241616; 1942755.4617544
3595.42; 0.98044851; 1942756.4598086
3596.44; 0.94893451; 1942757.425783
3597.46; 0.93100236; 1942758.3735032
3598.48; 0.92597677; 1942759.3161076
3599.50; 0.93145844; 1942760.2642921
3600.51; 0.94399844; 1942761.2252418
3601.53; 0.95993188; 1942762.2024111
3602.55; 0.97614819; 1942763.1960878
3603.57; 0.99060033; 1942764.2044762
3604.59; 1.0024396; 1942765.2249164
3605.60; 1.0117805; 1942766.2548652
3606.62; 1.0192133; 1942767.2923804
3607.64; 1.0252531; 1942768.3360438
3608.66; 1.0299208; 1942769.3844588
3609.67; 1.0325977; 1942770.4355987
3610.69; 1.0321878; 1942771.4863213
3611.71; 1.0275173; 1942772.5322896
3612.73; 1.0178126; 1942773.5683788
3613.75; 1.0030766; 1942774.5894675
3614.76; 0.98422226; 1942775.5913633
3615.78; 0.96291051; 1942776.5715647
3616.80; 0.94114984; 1942777.5296146
3617.82; 0.92079981; 1942778.4669491
3618.84; 0.903154; 1942779.3863209
3619.85; 0.88874417; 1942780.2910241
3620.87; 0.8774209; 1942781.1842007
3621.89; 0.86865782; 1942782.0684569
3622.91; 0.86194068; 1942782.9458753
3623.93; 0.85707252; 1942783.8183381
3624.94; 0.85426535; 1942784.6879434
3625.96; 0.85398227; 1942785.5572605
3626.98; 0.85660366; 1942786.4292461
3628.00; 0.8620703; 1942787.3067964
3629.02; 0.86967125; 1942788.1920842
3630.03; 0.87808532; 1942789.0859372
3631.05; 0.88567672; 1942789.9875179
3632.07; 0.8909337; 1942790.8944499
3633.09; 0.89287343; 1942791.8033566
3634.11; 0.89124905; 1942792.7106096
3635.12; 0.88648101; 1942793.613009
3636.14; 0.87936005; 1942794.5081596
3637.16; 0.87067407; 1942795.3944683
3638.18; 0.86094809; 1942796.2708763
3639.20; 0.85043212; 1942797.1365795
3640.21; 0.83934814; 1942797.9909997
3641.23; 0.82826766; 1942798.8341404
3642.25; 0.8184032; 1942799.6672395
3643.27; 0.81160603; 1942800.4934195
3644.29; 0.80997492; 1942801.317939
3645.30; 0.81515445; 1942802.147731
3646.32; 0.82756204; 1942802.9901535
3647.34; 0.84585725; 1942803.8511997
3648.36; 0.86691389; 1942804.7336806
3649.38; 0.88638682; 1942805.6359841
3650.39; 0.89974384; 1942806.5518845
3651.41; 0.90344747; 1942807.4715551
3652.43; 0.89589803; 1942808.3835406
3653.45; 0.87782268; 1942809.2771262
3654.47; 0.85198736; 1942810.1444126
3655.48; 0.82234664; 1942810.981526
3656.50; 0.79293675; 1942811.7887014
3657.52; 0.76688835; 1942812.5693606
3658.54; 0.7458649; 1942813.3286189
3659.55; 0.73005427; 1942814.0717826
3660.57; 0.71863127; 1942814.8033183
3661.59; 0.71044893; 1942815.5265246
3662.61; 0.70466472; 1942816.2438429
3663.63; 0.70107341; 1942816.9575054
3664.64; 0.70006255; 1942817.6701388
3665.66; 0.70226552; 1942818.3850148
3666.68; 0.70809524; 1942819.1058252
3667.70; 0.71736536; 1942819.8360722
3668.72; 0.72914534; 1942820.5783107
3669.73; 0.7418898; 1942821.3335225
3670.75; 0.75377702; 1942822.100835
3671.77; 0.76312813; 1942822.8776665
3672.79; 0.76877218; 1942823.6602434
3673.81; 0.77026224; 1942824.4443371
3674.82; 0.7679092; 1942825.2260356
3675.84; 0.76265296; 1942826.0023834
3676.86; 0.75582241; 1942826.771778
3677.88; 0.74884307; 1942827.5340679
3678.90; 0.74294633; 1942828.2903552
3679.91; 0.7389275; 1942829.0425515
3680.93; 0.73699635; 1942829.792782
3681.95; 0.7367571; 1942830.5427689
3682.97; 0.73733825; 1942831.2933474
3683.99; 0.7376587; 1942832.0442522
3685.00; 0.73677342; 1942832.7942557
3686.02; 0.73420357; 1942833.5416433
3687.04; 0.73014327; 1942834.2848976
3688.06; 0.72546101; 1942835.0233856
3689.08; 0.72147432; 1942835.7578153
3690.09; 0.71955447; 1942836.4902907
3691.11; 0.72068207; 1942837.223914
3692.13; 0.72510004; 1942837.9620345
3693.15; 0.73218293; 1942838.7073652
3694.17; 0.74057123; 1942839.4612347
3695.18; 0.74853014; 1942840.2232061
3696.20; 0.75441881; 1942840.9911719
3697.22; 0.75712348; 1942841.7618909
3698.24; 0.75632615; 1942842.5317983
3699.26; 0.75253993; 1942843.2978515
3700.27; 0.74691804; 1942844.0581818
3701.29; 0.74090961; 1942844.8123958
3702.31; 0.73587043; 1942845.5614802
3703.33; 0.73273591; 1942846.3073737
3704.34; 0.73183219; 1942847.0523473
3705.36; 0.73285545; 1942847.7983625
3706.38; 0.73500398; 1942848.5465649
3707.40; 0.73721381; 1942849.2970167
3708.42; 0.73843103; 1942850.0487076
3709.43; 0.73785238; 1942850.7998095
3710.45; 0.73507802; 1942851.5480872
3711.47; 0.73014476; 1942852.2913431
3712.49; 0.72344007; 1942853.0277739
3713.51; 0.71553147; 1942853.756154
3714.52; 0.70697287; 1942854.4758219
3715.54; 0.69815822; 1942855.1865168
3716.56; 0.68927666; 1942855.8881707
3717.58; 0.68038331; 1942856.5807716
3718.60; 0.67154875; 1942857.2643792
3719.61; 0.66300898; 1942857.9392938
3720.63; 0.65522644; 1942858.606286
3721.65; 0.64880347; 1942859.2667399
3722.67; 0.6442544; 1942859.9225631
3723.69; 0.64171777; 1942860.5758041
3724.70; 0.64074108; 1942861.2280509
3725.72; 0.64026943; 1942861.8798175
3726.74; 0.63890568; 1942862.5301959
3727.76; 0.63540288; 1942863.1770087
3728.78; 0.62923839; 1942863.8175462
3729.79; 0.62105261; 1942864.4497509
3730.81; 0.61274881; 1942865.0735028
3731.83; 0.60714888; 1942865.6915542
3732.85; 0.60725452; 1942866.309713
3733.87; 0.61531739; 1942866.9360796
3734.88; 0.63201544; 1942867.579444
3735.90; 0.6560235; 1942868.2472477
3736.92; 0.68415195; 1942868.9436848
3737.94; 0.7120444; 1942869.6685153
3738.96; 0.73523876; 1942870.4169566
3739.97; 0.75027341; 1942871.1807026
3740.99; 0.75550632; 1942871.9497754
3742.01; 0.75141265; 1942872.7146811
3743.03; 0.74029949; 1942873.468274
3744.05; 0.72556143; 1942874.2068642
3745.06; 0.71073208; 1942874.9303588
3746.08; 0.69862516; 1942875.6415291
3747.10; 0.69079767; 1942876.3447313
3748.12; 0.68744004; 1942877.0445156
3749.14; 0.68765449; 1942877.7445182
3750.15; 0.68997427; 1942878.4468822
3751.17; 0.69293409; 1942879.1522592
3752.19; 0.69552696; 1942879.8602757
3753.21; 0.69745255; 1942880.5702523
3754.22; 0.69914196; 1942881.2819486
3755.24; 0.70160344; 1942881.9961506
3756.26; 0.70615895; 1942882.71499
3757.28; 0.71413681; 1942883.4419504
3758.30; 0.7265676; 1942884.1815649
3759.31; 0.7439165; 1942884.9388398
3760.33; 0.76588386; 1942885.7184765
3761.35; 0.79131258; 1942886.5239986
3762.37; 0.81824359; 1942887.3569352
3763.39; 0.84414516; 1942888.2162386
3764.40; 0.86630422; 1942889.0980989
3765.42; 0.88231723; 1942889.9962598
3766.44; 0.89057305; 1942890.9028247
3767.46; 0.89060276; 1942891.8094199
3768.48; 0.88319398; 1942892.7084732
3769.49; 0.87022663; 1942893.5943264
3770.51; 0.85426622; 1942894.4639325
3771.53; 0.83802076; 1942895.3170015
3772.55; 0.82380417; 1942896.1555986
3773.57; 0.81313961; 1942896.9833396
3774.58; 0.80658543; 1942897.8044088
3775.60; 0.8037947; 1942898.6226371
3776.62; 0.80375356; 1942899.4408236
3777.64; 0.80510601; 1942900.2603867
3778.66; 0.80647238; 1942901.0813408
3779.67; 0.80669914; 1942901.9025257
3780.69; 0.80502038; 1942902.7220017
3781.71; 0.80114532; 1942903.5375331
3782.73; 0.79529765; 1942904.3471118
3783.75; 0.78822044; 1942905.1494862
3784.76; 0.78113586; 1942905.9446488
3785.78; 0.77562952; 1942906.7342062
3786.80; 0.77343136; 1942907.5215259
3787.82; 0.77609235; 1942908.3115544
3788.84; 0.78460122; 1942909.1102446
3789.85; 0.79902934; 1942909.923622
3790.87; 0.81831339; 1942910.7566297
3791.89; 0.84026983; 1942911.6119882
3792.91; 0.86188207; 1942912.4893469
3793.93; 0.87982501; 1942913.3849708
3794.94; 0.89111642; 1942914.2920889
3795.96; 0.89373767; 1942915.2018753
3796.98; 0.88706462; 1942916.1048688
3798.00; 0.87199658; 1942916.9925237
3799.01; 0.85075196; 1942917.8585524
3800.03; 0.82638993; 1942918.6997817
3801.05; 0.80218712; 1942919.5163736
3802.07; 0.78102847; 1942920.3114269
3803.09; 0.76495278; 1942921.0901158
3804.10; 0.75493671; 1942921.8586088
3805.12; 0.75092692; 1942922.62302
3806.14; 0.75206357; 1942923.3885883
3807.16; 0.75700144; 1942924.159183
3808.18; 0.76423344; 1942924.9371397
3809.19; 0.77235201; 1942925.7233607
3810.21; 0.78022764; 1942926.5175988
3811.23; 0.78712169; 1942927.3188547
3812.25; 0.79276566; 1942928.1258559
3813.27; 0.79742734; 1942928.9376026
3814.28; 0.80195272; 1942929.7539558
3815.30; 0.80774071; 1942930.576201
3816.32; 0.81659367; 1942931.4074581
3817.34; 0.8304053; 1942932.2527749
3818.36; 0.8506976; 1942933.1187483
3819.37; 0.87808632; 1942934.0126023
3820.39; 0.91181335; 1942934.940789
3821.41; 0.94950842; 1942935.9073476
3822.43; 0.98731289; 1942936.9123895
3823.45; 1.0204153; 1942937.9511282
3824.46; 1.0439308; 1942939.0138047
3825.48; 1.0539417; 1942940.0866719
3826.50; 1.0484407; 1942941.1539394
3827.52; 1.0279157; 1942942.2003132
3828.54; 0.99539171; 1942943.213579
3829.55; 0.95588343; 1942944.1866271
3830.57; 0.91537554; 1942945.1184399
3831.59; 0.87958006; 1942946.0138145
3832.61; 0.85278567; 1942946.8819135
3833.63; 0.83708554; 1942947.7340304
3834.64; 0.83215918; 1942948.5811326
3835.66; 0.83562627; 1942949.4317641
3836.68; 0.84383608; 1942950.2907528
3837.70; 0.8528544; 1942951.1589218
3838.72; 0.8593879; 1942952.0337415
3839.73; 0.86144266; 1942952.910653
3840.75; 0.85862117; 1942953.7846923
3841.77; 0.85207489; 1942954.6520678
3842.79; 0.84420849; 1942955.5114356
3843.81; 0.83825306; 1942956.364741
3844.82; 0.8377955; 1942957.2175807
3845.84; 0.8462967; 1942958.0790742
3846.86; 0.8665902; 1942958.9612257
3847.88; 0.90035315; 1942959.8777463
3848.89; 0.94758756; 1942960.8423496
3849.91; 1.0062198; 1942961.8666379
3850.93; 1.0719789; 1942962.9578661
3851.95; 1.1387097; 1942964.1170234
3852.97; 1.1991933; 1942965.3377504
3853.98; 1.246401; 1942966.6065328
3855.00; 1.2749413; 1942967.9043681
3856.02; 1.2823385; 1942969.2097333
3857.04; 1.2697629; 1942970.5022971
3858.06; 1.2419419; 1942971.7665404
3859.07; 1.2061924; 1942972.9943923
3860.09; 1.170778; 1942974.1861937
3861.11; 1.1430082; 1942975.3497268
3862.13; 1.1275982; 1942976.4975731
3863.15; 1.1257431; 1942977.6435309
3864.16; 1.1351569; 1942978.7990717
3865.18; 1.1510332; 1942979.9707738
3866.20; 1.1676086; 1942981.1593489
3867.22; 1.1798351; 1942982.3603701
3868.24; 1.1846554; 1942983.5662982
3869.25; 1.1815245; 1942984.7690392
3870.27; 1.172083; 1942985.9621692
3871.29; 1.1591687; 1942987.1421528
3872.31; 1.145561; 1942988.3082845
3873.33; 1.1329219; 1942989.4615502
3874.34; 1.1213005; 1942990.6029857
3875.36; 1.1093568; 1942991.7322631
3876.38; 1.0951946; 1942992.847124
3877.40; 1.0774749; 1942993.9439469
3878.42; 1.056382; 1942995.0192982
3879.43; 1.0340597; 1942996.0719263
3880.45; 1.0143232; 1942997.1044635
3881.47; 1.0017009; 1942998.1241518
3882.49; 1.0001033; 1942999.1422139
3883.51; 1.0115597; 1943000.171938
3884.52; 1.0354609; 1943001.2259925
3885.54; 1.068598; 1943002.3137791
3886.56; 1.1060278; 1943003.4396677
3887.58; 1.1425224; 1943004.6027062
3888.60; 1.1741461; 1943005.7979362
3889.61; 1.1994388; 1943007.0189131
3890.63; 1.219787; 1943008.2606036
3891.65; 1.2388164; 1943009.5216653
3892.67; 1.2609606; 1943010.8052687
3893.68; 1.2896488; 1943012.1180756
3894.70; 1.3257158; 1943013.467597
3895.72; 1.3665964; 1943014.8587332
3896.74; 1.4066439; 1943016.290636
3897.76; 1.4385521; 1943017.75502
3898.77; 1.4554974; 1943019.2366535
3899.79; 1.4533514; 1943020.7161026
3900.81; 1.4322622; 1943022.1740837
3901.83; 1.3970659; 1943023.5962364
3902.85; 1.3563471; 1943024.9769393
3903.86; 1.3203819; 1943026.321031
3904.88; 1.2985496; 1943027.6428985
3905.90; 1.2969689; 1943028.9631569
3906.92; 1.3170366; 1943030.3038433
3907.94; 1.3552664; 1943031.683446
3908.95; 1.4044155; 1943033.1130804
3909.97; 1.4555068; 1943034.5947235
3910.99; 1.5001096; 1943036.1217703
3912.01; 1.5322163; 1943037.6815004
3913.03; 1.5492367; 1943039.2585566
3914.04; 1.5519542; 1943040.838379
3915.06; 1.5436253; 1943042.4097229
3916.08; 1.5286481; 1943043.9658208
3917.10; 1.511293; 1943045.5042518
3918.12; 1.4948831; 1943047.0259783
3919.13; 1.4815807; 1943048.5341635
3920.15; 1.4726776; 1943050.0332857
3921.17; 1.4691035; 1943051.5287697
3922.19; 1.4718182; 1943053.0270172
3923.21; 1.4818435; 1943054.5354699
3924.22; 1.4998885; 1943056.0622916
3925.24; 1.5257248; 1943057.6154137
3926.26; 1.5576089; 1943059.2009923
3927.28; 1.5920643; 1943060.8216451
3928.30; 1.6242213; 1943062.4750322
3929.31; 1.6487098; 1943064.1533477
3930.33; 1.6608869; 1943065.8440588
3931.35; 1.6580385; 1943067.5318704
3932.37; 1.6401729; 1943069.2014957
3933.39; 1.610139; 1943070.8405477
3934.40; 1.5730126; 1943072.4418067
3935.42; 1.5349284; 1943074.0042975
3936.44; 1.5017059; 1943075.5329693
3937.46; 1.4776771; 1943077.0371809
3938.48; 1.4650341; 1943078.5285224
3939.49; 1.4638296; 1943080.0186378
3940.51; 1.472535; 1943081.5176149
3941.53; 1.4888813; 1943083.0332317
3942.55; 1.5106398; 1943084.5709978
3943.56; 1.5360634; 1943086.1346441
3944.58; 1.5638756; 1943087.7266019
3945.60; 1.5928984; 1943089.3481037
3946.62; 1.621566; 1943090.998788
3947.64; 1.6476152; 1943092.6759892
3948.65; 1.668165; 1943094.3741092
3949.67; 1.6802203; 1943096.0845009
3950.69; 1.6814404; 1943097.7961347
3951.71; 1.6708814; 1943099.4970199
3952.73; 1.6494051; 1943101.176043
3953.74; 1.6195677; 1943102.8246931
3954.76; 1.5849949; 1943104.4381494
3955.78; 1.5494543; 1943106.015427
3956.80; 1.5159555; 1943107.5586043
3957.82; 1.4861953; 1943109.071487
3958.83; 1.4605298; 1943110.5582433
3959.85; 1.4384402; 1943112.0225134
3960.87; 1.4192664; 1943113.4672653
3961.89; 1.40288; 1943114.8953366
3962.91; 1.3900007; 1943116.3102973
3963.92; 1.382017; 1943117.7171309
3964.94; 1.3803808; 1943119.122299
3965.96; 1.3858251; 1943120.5330092
3966.98; 1.397732; 1943121.9558401
3968.00; 1.4139245; 1943123.3951543
3969.01; 1.4309941; 1943124.8518445
3970.03; 1.445076; 1943126.3228695
3971.05; 1.4528221; 1943127.8017797
3972.07; 1.452256; 1943129.2801136
3973.09; 1.4432466; 1943130.7492764
3974.10; 1.4274779; 1943132.2023873
3975.12; 1.4079556; 1943133.6356253
3976.14; 1.3882289; 1943135.0487825
3977.16; 1.3715628; 1943136.4449742
3978.18; 1.3602698; 1943137.8296701
3979.19; 1.3553317; 1943139.2093393
3980.21; 1.3563381; 1943140.5900329
3981.23; 1.3616968; 1943141.9761815
3982.25; 1.3690269; 1943143.3697919
3983.27; 1.375646; 1943144.7701401
3984.28; 1.3790717; 1943146.1739756
3985.30; 1.3774689; 1943147.5761796
3986.32; 1.3699743; 1943148.9707542
3987.34; 1.3568277; 1943150.3519463
3988.35; 1.3392613; 1943151.7152565
3989.37; 1.319139; 1943153.058083
3990.39; 1.2984183; 1943154.3798168
3991.41; 1.2785787; 1943155.6813547
3992.43; 1.2602067; 1943156.9641907
3993.44; 1.242909; 1943158.2294184
3994.46; 1.2256305; 1943159.4770574
3995.48; 1.2073129; 1943160.7060498
3996.50; 1.1876826; 1943161.9150595
3997.52; 1.1678721; 1943163.1039029
3998.53; 1.1505909; 1943164.2751547
3999.55; 1.1396941; 1943165.4353141
4000.57; 1.1391971; 1943166.5949676
4001.59; 1.152002; 1943167.7676559
4002.61; 1.1787382; 1943168.9675605
4003.62; 1.21713; 1943170.2065463
4004.64; 1.2621624; 1943171.4913731
4005.66; 1.3070722; 1943172.8219162
4006.68; 1.3449171; 1943174.1909838
4007.70; 1.3702755; 1943175.5858651
4008.71; 1.3805714; 1943176.9912272
4009.73; 1.3766351; 1943178.3925824
4010.75; 1.3623484; 1943179.7793943
4011.77; 1.3435205; 1943181.1470402
4012.79; 1.3263717; 1943182.4972294
4013.80; 1.3161003; 1943183.8369627
4014.82; 1.315938; 1943185.1765307
4015.84; 1.326893; 1943186.5272505
4016.86; 1.3481205; 1943187.899579
4017.88; 1.3776489; 1943189.3019661
4018.89; 1.4131016; 1943190.7404426
4019.91; 1.4521209; 1943192.2186389
4020.93; 1.4923785; 1943193.7378159
4021.95; 1.5312764; 1943195.2965892
4022.97; 1.5655988; 1943196.8903012
4023.98; 1.5914166; 1943198.5102946
4025.00; 1.6044396; 1943200.143545
4026.02; 1.6008206; 1943201.7731113
4027.04; 1.5782095; 1943203.3796604
4028.06; 1.5367224; 1943204.9439775
4029.07; 1.4794876; 1943206.450032
4030.09; 1.4125485; 1943207.8879455
4031.11; 1.3441013; 1943209.2561827
4032.13; 1.283238; 1943210.5624636
4033.15; 1.2384861; 1943211.823189
4034.16; 1.2164527; 1943213.0614854
4035.18; 1.2208064; 1943214.3042136
4036.20; 1.2517109; 1943215.5784013
4037.22; 1.3057271; 1943216.9075751
4038.23; 1.3761434; 1943218.3084297
4039.25; 1.4536976; 1943219.7882311
4040.27; 1.5276625; 1943221.3433257
4041.29; 1.5872537; 1943222.9590814
4042.31; 1.6232408; 1943224.6114705
4043.32; 1.6295355; 1943226.2702674
4044.34; 1.6044242; 1943227.903502
4045.36; 1.5510929; 1943229.4824476
4046.38; 1.4771969; 1943230.9861703
4047.40; 1.3934523; 1943232.4046446
4048.41; 1.3115136; 1943233.7397088
4049.43; 1.2416463; 1943235.0036512
4050.45; 1.1907997; 1943236.2158339
4051.47; 1.1615896; 1943237.398282
4052.49; 1.152426; 1943238.571402
4053.50; 1.1586627; 1943239.7508706
4054.52; 1.1743393; 1943240.9462973
4055.54; 1.193936; 1943242.1616727
4056.56; 1.2136274; 1943243.397093
4057.58; 1.2317581; 1943244.6509696
4058.59; 1.2485766; 1943245.9219667
4059.61; 1.2655113; 1943247.2102026
4060.63; 1.2843736; 1943248.5176395
4061.65; 1.3067905; 1943249.8478958
4062.67; 1.3339721; 1943251.2058218
4063.68; 1.3667028; 1943252.5970663
4064.70; 1.4053359; 1943254.0276376
4065.72; 1.4495973; 1943255.5032652
4066.74; 1.4981732; 1943257.0283408
4067.76; 1.5482539; 1943258.6043965
4068.77; 1.5953358; 1943260.2283796
4069.79; 1.633559; 1943261.8912722
4070.81; 1.6566739; 1943263.5776947
4071.83; 1.6594555; 1943265.2669488
4072.85; 1.6391466; 1943266.9355294
4073.86; 1.5964153; 1943268.5606112
4074.88; 1.5354302; 1943270.123613
4075.90; 1.4629445; 1943271.6128273
4076.92; 1.3866324; 1943273.0243593
4077.94; 1.3132052; 1943274.3611455
4078.95; 1.2469213; 1943275.6304575
4079.97; 1.1889649; 1943276.8407725
4080.99; 1.1378562; 1943277.999061
4082.01; 1.0906842; 1943279.1093305
4083.02; 1.0446773; 1943280.1727669
4084.04; 0.99853789; 1943281.1892354
4085.06; 0.95309364; 1943282.1594436
4086.08; 0.91109786; 1943283.0869019
4087.10; 0.87632957; 1943283.9789676
4088.11; 0.85237534; 1943284.8466489
4089.13; 0.84154446; 1943285.7033049
4090.15; 0.84426491; 1943286.5627301
4091.17; 0.85909121; 1943287.4372479
4092.19; 0.88322092; 1943288.3363287
4093.20; 0.91325608; 1943289.265984
4094.22; 0.94590955; 1943290.2288791
4095.24; 0.97843865; 1943291.2248874
4096.26; 1.0087386; 1943292.2517397
4097.28; 1.0351759; 1943293.3055041
4098.29; 1.0563297; 1943294.3808021
4099.31; 1.0708112; 1943295.4708417
4100.33; 1.0772641; 1943296.5674501
4101.35; 1.0745523; 1943297.6612979
4102.37; 1.062057; 1943298.7424261
4103.38; 1.0399663; 1943299.8010669
4104.40; 1.0094522; 1943300.8286457
4105.42; 0.97267383; 1943301.8187857
4106.44; 0.93259922; 1943302.7681315
4107.46; 0.89267893; 1943303.6768401
4108.47; 0.85642453; 1943304.5486433
4109.49; 0.8269495; 1943305.3904422
4110.51; 0.8065292; 1943306.2114541
4111.53; 0.79623941; 1943307.0219915
4112.55; 0.79573823; 1943307.8320187
4113.56; 0.80325411; 1943308.6496967
4114.58; 0.81582239; 1943309.4801687
4115.60; 0.82976773; 1943310.3248364
4116.62; 0.84136719; 1943311.1813119
4117.64; 0.84756736; 1943312.0440989
4118.65; 0.84659278; 1943312.9058939
4119.67; 0.83829053; 1943313.7592374
4120.69; 0.824113; 1943314.5981489
4121.71; 0.80673264; 1943315.4193679
4122.73; 0.78938319; 1943316.222926
4123.74; 0.77509715; 1943317.0119414
4124.76; 0.76603619; 1943317.7917332
4125.78; 0.7630795; 1943318.5685152
4126.80; 0.7657577; 1943319.3480235
4127.82; 0.77252031; 1943320.1344158
4128.83; 0.78123658; 1943320.929681
4129.85; 0.78977632; 1943321.7336392
4130.87; 0.79651264; 1943322.5444547
4131.89; 0.80062778; 1943323.3594592
4132.90; 0.8021703; 1943324.1760339
4133.92; 0.80188333; 1943324.9923166
4134.94; 0.80088093; 1943325.8075788
4135.96; 0.80027817; 1943326.6222274
4136.98; 0.8008793; 1943327.437488
4137.99; 0.80300188; 1943328.2549093
4139.01; 0.80647244; 1943329.0758634
4140.03; 0.81078326; 1943329.9012058
4141.05; 0.81535822; 1943330.7312053
4142.07; 0.81984712; 1943331.5657743
4143.08; 0.82435688; 1943332.404934
4144.10; 0.82953863; 1943333.2493685
4145.12; 0.83648198; 1943334.1008711
4146.14; 0.84641785; 1943334.9624879
4147.16; 0.86028907; 1943335.8382251
4148.17; 0.87829914; 1943336.7322957
4149.19; 0.899577; 1943337.6480263
4150.21; 0.92208625; 1943338.5866703
4151.23; 0.94285687; 1943339.5464579
4152.25; 0.9585342; 1943340.5222043
4153.26; 0.96614485; 1943341.5056981
4154.28; 0.96390028; 1943342.486907
4155.30; 0.95182255; 1943343.4558213
4156.32; 0.93200037; 1943344.4045574
4157.34; 0.90836491; 1943345.3292337
4158.35; 0.885996; 1943346.2311394
4159.37; 0.87009588; 1943347.1168595
4160.39; 0.86486424; 1943347.997254
4161.41; 0.87254442; 1943348.8854665
4162.43; 0.89287575; 1943349.7943755
4163.44; 0.92308856; 1943350.7340398
4164.46; 0.95844422; 1943351.7096947
4165.48; 0.99319006; 1943352.7207193
4166.50; 1.0217026; 1943353.7607685
4167.52; 1.039558; 1943354.8189937
4168.53; 1.0442989; 1943355.8820449
4169.55; 1.0357558; 1943356.9363996
4170.57; 1.0158894; 1943357.9705312
4171.59; 0.98823743; 1943358.9765142
4172.61; 0.95712149; 1943359.9508226
4173.62; 0.92680697; 1943360.8942721
4174.64; 0.90079032; 1943361.8112378
4175.66; 0.88133476; 1943362.7083985
4176.68; 0.86930397; 1943363.5933125
4177.69; 0.86427339; 1943364.4731055
4178.71; 0.86484735; 1943365.3534828
4179.73; 0.86908473; 1943366.2381735
4180.75; 0.87493544; 1943367.12882
4181.77; 0.88060861; 1943368.0252416
4182.78; 0.88482175; 1943368.925952
4183.80; 0.88690942; 1943369.8287875
4184.82; 0.88679705; 1943370.7315086
4185.84; 0.88486592; 1943371.6322639
4186.86; 0.88175073; 1943372.5298481
4187.87; 0.87811878; 1943373.4237352
4188.89; 0.8744806; 1943374.3139187
4189.91; 0.87107168; 1943375.2006321
4190.93; 0.86782687; 1943376.0840424
4191.95; 0.86444373; 1943376.9640088
4192.96; 0.86050791; 1943377.8399687
4193.98; 0.85563837; 1943378.7109716
4195.00; 0.84961052; 1943379.5758385
4196.02; 0.84243076; 1943380.4333966
4197.04; 0.83436012; 1943381.2827392
4198.05; 0.82590615; 1943382.1234761
4199.07; 0.81781031; 1943382.9559717
4200.09; 0.81104542; 1943383.7815809
4201.11; 0.8068112; 1943384.6028799
4202.13; 0.80648715; 1943385.423849
4203.14; 0.81149101; 1943386.2499118
4204.16; 0.82301008; 1943387.0877006
4205.18; 0.84162356; 1943387.9444371
4206.20; 0.86689986; 1943388.8269037
4207.22; 0.89710684; 1943389.7401198
4208.23; 0.92918435; 1943390.6859893
4209.25; 0.95908033; 1943391.6622917
4210.27; 0.9824487; 1943392.6623821
4211.29; 0.9955798; 1943393.6758394
4212.31; 0.99632707; 1943394.6900573
4213.32; 0.98475401; 1943395.6924944
4214.34; 0.96327663; 1943396.6730685
4215.36; 0.93621277; 1943397.6260927
4216.38; 0.90882946; 1943398.5512418
4217.40; 0.88614099; 1943399.4532951
4218.41; 0.87179572; 1943400.3407456
4219.43; 0.8673639; 1943401.2236846
4220.45; 0.87220871; 1943402.1115554
4221.47; 0.88393364; 1943403.0113617
4222.49; 0.89921883; 1943403.9267277
4223.50; 0.91475176; 1943404.8579055
4224.52; 0.92796002; 1943405.8025288
4225.54; 0.93735894; 1943406.7567197
4226.56; 0.94248944; 1943407.7161333
4227.57; 0.94357473; 1943408.6766516
4228.59; 0.94110905; 1943409.63466
4229.61; 0.93557902; 1943410.5870391
4230.63; 0.92742064; 1943411.5311133
4231.65; 0.91718083; 1943412.4647638
4232.66; 0.90574356; 1943413.3867717
4233.68; 0.8944448; 1943414.2972779
4234.70; 0.8849535; 1943415.1981224
4235.72; 0.87891105; 1943416.0928159
4236.74; 0.87744713; 1943416.9860192
4237.75; 0.88076618; 1943417.8826012
4238.77; 0.88799002; 1943418.7865367
4239.79; 0.89734965; 1943419.6999999
4240.81; 0.90668023; 1943420.6229612
4241.83; 0.91404928; 1943421.553424
4242.84; 0.91829108; 1943422.4882047
4243.86; 0.91925739; 1943423.423969
4244.88; 0.91770932; 1943424.3581575
4245.90; 0.91491904; 1943425.2895056
4246.92; 0.91216128; 1943426.2180464
4247.93; 0.91030542; 1943427.1446981
4248.95; 0.90965896; 1943428.0706916
4249.97; 0.9100895; 1943428.9971235
4250.99; 0.91132227; 1943429.9248102
4252.01; 0.91323323; 1943430.8544422
4253.02; 0.9159678; 1943431.7868579
4254.04; 0.91980851; 1943432.7231833
4255.06; 0.92484763; 1943433.6646383
4256.08; 0.93063164; 1943434.6119811
4257.10; 0.935979; 1943435.5647674
4258.11; 0.93911207; 1943436.5207429
4259.13; 0.9381107; 1943437.4756991
4260.15; 0.93154626; 1943438.423973
4261.17; 0.91905705; 1943439.3595335
4262.19; 0.90162532; 1943440.2773491
4263.20; 0.88141791; 1943441.1745945
4264.22; 0.86121751; 1943442.0512768
4265.24; 0.84363259; 1943442.9100584
4266.26; 0.83036466; 1943443.7553338
4267.28; 0.82179193; 1943444.5918825
4268.29; 0.81700854; 1943445.4235619
4269.31; 0.81428473; 1943446.2524686
4270.33; 0.81175836; 1943447.0788036
4271.35; 0.80809229; 1943447.9014067
4272.36; 0.80286427; 1943448.7186879
4273.38; 0.79657738; 1943449.5295693
4274.40; 0.79033769; 1943450.3340989
4275.42; 0.78537343; 1943451.1335752
4276.44; 0.78261701; 1943451.9302455
4277.45; 0.78252118; 1943452.7268183
4278.47; 0.78516063; 1943453.526078
4279.49; 0.79053293; 1943454.3308064
4280.51; 0.79887941; 1943455.1440311
4281.53; 0.81083388; 1943455.969425
4282.54; 0.82728148; 1943456.8115619
4283.56; 0.8489384; 1943457.6757445
4284.58; 0.87579324; 1943458.5672643
4285.60; 0.90662984; 1943459.4901743
4286.62; 0.93884698; 1943460.44588
4287.63; 0.96870334; 1943461.4319782
4288.65; 0.99197715; 1943462.4417682
4289.67; 1.0048879; 1943463.4647007
4290.69; 1.0050318; 1943464.4877797
4291.71; 0.99206389; 1943465.4976579
4292.72; 0.96792609; 1943466.4829649
4293.74; 0.93654352; 1943467.4363258
4294.76; 0.90306123; 1943468.3556032
4295.78; 0.87281403; 1943469.2440902
4296.80; 0.85028708; 1943470.1096457
4297.81; 0.83831283; 1943470.963012
4298.83; 0.8376712; 1943471.8157252
4299.85; 0.84714069; 1943472.6780778
4300.87; 0.86392806; 1943473.5575193
4301.89; 0.8843187; 1943474.4577176
4302.90; 0.90436346; 1943475.3783206
4303.92; 0.92045115; 1943476.3153001
4304.94; 0.92969142; 1943477.2616859
4305.96; 0.93011594; 1943478.2085038
4306.98; 0.92076369; 1943479.1458015
4307.99; 0.9017261; 1943480.0637197
4309.01; 0.87419096; 1943480.9536084
4310.03; 0.84046181; 1943481.8091622
4311.05; 0.80387739; 1943482.6274747
4312.07; 0.76854514; 1943483.4098205
4313.08; 0.73884801; 1943484.1619359
4314.10; 0.71877067; 1943484.8936134
4315.12; 0.71118533; 1943485.6175694
4316.14; 0.71729287; 1943486.3477426
4317.15; 0.73640031; 1943487.0973663
4318.17; 0.76612575; 1943487.8772493
4319.19; 0.80298515; 1943488.6946535
4320.21; 0.84318444; 1943489.5529789
4321.23; 0.88336874; 1943490.4522102
4322.24; 0.92110082; 1943491.389851
4323.26; 0.95494925; 1943492.3619482
4324.28; 0.98422034; 1943493.363842
4325.30; 1.0085051; 1943494.3904567
4326.32; 1.0272759; 1943495.4361792
4327.33; 1.0397306; 1943496.49458
4328.35; 1.0449607; 1943497.5583049
4329.37; 1.042367; 1943498.6193896
4330.39; 1.0321268; 1943499.6700501
4331.41; 1.0154819; 1943500.7037668
4332.42; 0.9946864; 1943501.7163146
4333.44; 0.97258871; 1943502.7063679
4334.46; 0.95197563; 1943503.6754381
4335.48; 0.93490797; 1943504.627134
4336.50; 0.92228387; 1943505.5659792
4337.51; 0.91378037; 1943506.4961682
4338.53; 0.90817939; 1943507.4206556
4339.55; 0.90394179; 1943508.3408294
4340.57; 0.89980881; 1943509.2567959
4341.59; 0.89521371; 1943510.1680848
4342.60; 0.89037146; 1943511.0744445
4343.62; 0.88604202; 1943511.9763971
4344.64; 0.88308215; 1943512.8753366
4345.66; 0.88196808; 1943513.7731421
4346.68; 0.88246693; 1943514.6714553
4347.69; 0.88356941; 1943515.5708908
4348.71; 0.88369908; 1943516.4704584
4349.73; 0.88112286; 1943517.3674034
4350.75; 0.87443116; 1943518.2575366
4351.77; 0.86294592; 1943519.1359783
4352.78; 0.84694644; 1943519.9981333
4353.80; 0.82765894; 1943520.8406543
4354.82; 0.80701887; 1943521.6621647
4355.84; 0.78726916; 1943522.4635708
4356.86; 0.7704943; 1943523.2479007
4357.87; 0.75820323; 1943524.0197189
4358.89; 0.75106192; 1943524.7842675
4359.91; 0.74883933; 1943525.5465536
4360.93; 0.75057361; 1943526.3106052
4361.95; 0.75490202; 1943527.0790629
4362.96; 0.76044622; 1943527.8531643
4363.98; 0.76612493; 1943528.6330464
4365.00; 0.77129046; 1943529.4181868
4366.02; 0.77565155; 1943530.2077666
4367.03; 0.77903141; 1943531.000787
4368.05; 0.78108328; 1943531.7958961
4369.07; 0.78111359; 1943532.591036
4370.09; 0.77812696; 1943533.3831357
4371.11; 0.77111615; 1943534.1680986
4372.12; 0.75950723; 1943534.9412442
4373.14; 0.74358338; 1943535.69818
4374.16; 0.72469066; 1943536.4358838
4375.18; 0.70509236; 1943537.1536374
4376.20; 0.6874663; 1943537.8534485
4377.21; 0.67418398; 1943538.5397387
4378.23; 0.66661231; 1943539.2183212
4379.25; 0.66469238; 1943539.8949494
4380.27; 0.66696326; 1943540.5738892
4381.29; 0.67104202; 1943541.256981
4382.30; 0.67440194; 1943541.9434931
4383.32; 0.67517732; 1943542.6307945
4384.34; 0.67270981; 1943543.315584
4385.36; 0.66764613; 1943543.995219
4386.38; 0.66156388; 1943544.6686625
4387.39; 0.65627662; 1943545.3367238
4388.41; 0.65308461; 1943546.0015357
4389.43; 0.65225061; 1943546.6654987
4390.45; 0.65288786; 1943547.3301103
4391.47; 0.65328776; 1943547.9951291
4392.48; 0.65155177; 1943548.6583807
4393.50; 0.64628575; 1943549.3162717
4394.52; 0.63710446; 1943549.9648165
4395.54; 0.62477735; 1943550.6008129
4396.56; 0.61098734; 1943551.2227717
4397.57; 0.59781535; 1943551.8313219
4398.59; 0.58715142; 1943552.4290167
4399.61; 0.58023855; 1943553.0196745
4400.63; 0.5774831; 1943553.6075274
4401.65; 0.57854907; 1943554.1964654
4402.66; 0.58264447; 1943554.7895723
4403.68; 0.58884753; 1943555.3889937
4404.70; 0.59633104; 1943555.9960329
4405.72; 0.60441399; 1943556.6113003
4406.74; 0.6124662; 1943557.2347645
4407.75; 0.61976905; 1943557.8656626
4408.77; 0.62545954; 1943558.5023534
4409.79; 0.62864338; 1943559.1422853
4410.81; 0.62867475; 1943559.782249
4411.82; 0.62550435; 1943560.4189855
4412.84; 0.61993814; 1943561.0500557
4413.86; 0.61365642; 1943561.6747315
4414.88; 0.6089201; 1943562.2945859
4415.90; 0.60800988; 1943562.9135137
4416.91; 0.61255874; 1943563.5370721
4417.93; 0.62299937; 1943564.1712585
4418.95; 0.63832857; 1943564.8210495
4419.97; 0.6562919; 1943565.4891263
4420.99; 0.67394949; 1943566.1751778
4422.00; 0.68845114; 1943566.8759914
4423.02; 0.697776; 1943567.5862972
4424.04; 0.7012071; 1943568.3000958
4425.06; 0.69940655; 1943569.0120615
4426.08; 0.69409597; 1943569.7186212
4427.09; 0.68747491; 1943570.418441
4428.11; 0.68158095; 1943571.112261
4429.13; 0.67778827; 1943571.8022202
4430.15; 0.67656695; 1943572.4909362
4431.17; 0.67752033; 1943573.1806226
4432.18; 0.67962737; 1943573.872454
4433.20; 0.68157289; 1943574.5662657
4434.22; 0.68206037; 1943575.2605738
4435.24; 0.68004941; 1943575.9528347
4436.26; 0.67491377; 1943576.6398678
4437.27; 0.66654459; 1943577.3183815
4438.29; 0.65541807; 1943577.9855688
4439.31; 0.64261785; 1943578.639726
4440.33; 0.62977538; 1943579.2808102
4441.35; 0.61889112; 1943579.9108146
4442.36; 0.61203414; 1943580.533839
4443.38; 0.61097328; 1943581.1557834
4444.40; 0.61683981; 1943581.7836997
4445.42; 0.62992949; 1943582.4249408
4446.44; 0.64970937; 1943583.0863169
4447.45; 0.67501413; 1943583.7734521
4448.47; 0.70433704; 1943584.4904368
4449.49; 0.73608101; 1943585.2397355
4450.51; 0.7686619; 1943586.0222002
4451.53; 0.80044234; 1943586.8370159
4452.54; 0.82958062; 1943587.6814932
4453.56; 0.8539512; 1943588.5507787
4454.58; 0.87128802; 1943589.4377123
4455.60; 0.87960945; 1943590.3331167
4456.62; 0.87783743; 1943591.2267174
4457.63; 0.86639017; 1943592.1086652
4458.65; 0.84747411; 1943592.9713573
4459.67; 0.82486753; 1943593.8110368
4460.69; 0.80316068; 1943594.6286197
4461.70; 0.78663399; 1943595.4293792
4462.72; 0.77812534; 1943596.2214772
4463.74; 0.77828202; 1943597.0137347
4464.76; 0.78548207; 1943597.8133216
4465.78; 0.79647671; 1943598.6241005
4466.79; 0.80753882; 1943599.4461402
4467.81; 0.81570814; 1943600.2764959
4468.83; 0.81968318; 1943601.110898
4469.85; 0.82004381; 1943601.9456672
4470.87; 0.81874647; 1943602.7791158
4471.88; 0.81811433; 1943603.6119208
4472.90; 0.81973666; 1943604.4463774
4473.92; 0.82371892; 1943605.2848877
4474.94; 0.8285786; 1943606.128345
4475.96; 0.83182219; 1943606.9751041
4476.97; 0.83096941; 1943607.8209951
4477.99; 0.82461844; 1943608.660421
4479.01; 0.81313396; 1943609.4881563
4480.03; 0.79868833; 1943610.3011866
4481.05; 0.78463278; 1943611.0999089
4482.06; 0.77442246; 1943611.8882375
4483.08; 0.7704753; 1943612.6725482
4484.10; 0.77335666; 1943613.4597919
4485.12; 0.78155562; 1943614.2553818
4486.14; 0.79190809; 1943615.06151
4487.15; 0.80050842; 1943615.876393
4488.17; 0.80380739; 1943616.6946343
4489.19; 0.79956136; 1943617.5085532
4490.21; 0.78737341; 1943618.3100654
4491.23; 0.76871257; 1943619.0925816
4492.24; 0.74645759; 1943619.8524432
4493.26; 0.72413484; 1943620.5895813
4494.28; 0.70507706; 1943621.3073193
4495.30; 0.69171645; 1943622.0114568
4496.32; 0.6851604; 1943622.7089205
4497.33; 0.68510894; 1943623.4063319
4498.35; 0.69008654; 1943624.1088102
4499.37; 0.69789612; 1943624.8192383
4500.39; 0.70616858; 1943625.5380874
4501.41; 0.71287617; 1943626.2637646
4502.42; 0.71670046; 1943626.9933348
4503.44; 0.71718623; 1943627.7233994
4504.46; 0.71466658; 1943628.4508991
4505.48; 0.70999919; 1943629.1736477
4506.49; 0.70419906; 1943629.8904919
4507.51; 0.69807747; 1943630.6011047
4508.53; 0.69199218; 1943631.3055228
4509.55; 0.68578086; 1943632.0036182
4510.57; 0.67889457; 1943632.6947035
4511.58; 0.67068835; 1943633.3774353
4512.60; 0.66077669; 1943634.0500775
4513.62; 0.64934013; 1943634.7110777
4514.64; 0.63728006; 1943635.3598013
4515.66; 0.62616067; 1943635.9972059
4516.67; 0.61793697; 1943636.626239
4517.69; 0.61452908; 1943637.2518031
4518.71; 0.6173491; 1943637.8802379
4519.73; 0.62690468; 1943638.5183998
4520.75; 0.64258805; 1943639.1725267
4521.76; 0.66271481; 1943639.8471418
4522.78; 0.68481291; 1943640.5442518
4523.80; 0.70609708; 1943641.2630281
4524.82; 0.72401304; 1943642.0000422
4525.84; 0.73671556; 1943642.7499868
4526.85; 0.74336064; 1943643.5066959
4527.87; 0.74414333; 1943644.2642017
4528.89; 0.74008408; 1943645.0175753
4529.91; 0.73263823; 1943645.7633694
4530.93; 0.72325188; 1943646.4996086
4531.94; 0.71299753; 1943647.2254094
4532.96; 0.7023901; 1943647.9404122
4533.98; 0.69141976; 1943648.6442476
4535.00; 0.67976465; 1943649.3362187
4536.02; 0.66708968; 1943650.0152872
4537.03; 0.65331695; 1943650.6803357
4538.05; 0.6387745; 1943651.3305806
4539.07; 0.62418245; 1943651.9659714
4540.09; 0.61049691; 1943652.5874309
4541.11; 0.59867888; 1943653.1968601
4542.12; 0.58947051; 1943653.7969157
4543.14; 0.58324405; 1943654.390633
4544.16; 0.57995028; 1943654.9809973
4545.18; 0.57915485; 1943655.570552
4546.20; 0.58012869; 1943656.1610979
4547.21; 0.58195997; 1943656.7535081
4548.23; 0.58367361; 1943657.3476626
4549.25; 0.58436306; 1943657.942519
4550.27; 0.58334407; 1943658.5363381
4551.29; 0.58032298; 1943659.1270819
4552.30; 0.57554175; 1943659.7129585
4553.32; 0.56983579; 1943660.2930268
4554.34; 0.56454004; 1943660.8677042
4555.36; 0.56121375; 1943661.4389955
4556.37; 0.56121921; 1943662.0102925
4557.39; 0.5652607; 1943662.5857035
4558.41; 0.57303457; 1943663.169028
4559.43; 0.58313434; 1943663.7626335
4560.45; 0.59328867; 1943664.3665758
4561.46; 0.60090164; 1943664.9782678
4562.48; 0.60375326; 1943665.5928625
4563.50; 0.60064604; 1943666.2042943
4564.52; 0.59178323; 1943666.8067041
4565.54; 0.57874177; 1943667.3958382
4566.55; 0.56403393; 1943667.9700004
4567.57; 0.5503903; 1943668.530274
4568.59; 0.5399916; 1943669.0799621
4569.61; 0.53389354; 1943669.6234427
4570.63; 0.53181984; 1943670.1648124
4571.64; 0.53237038; 1943670.7067424
4572.66; 0.53355059; 1943671.2498739
4573.68; 0.53342629; 1943671.7928789
4574.70; 0.53067996; 1943672.3330882
4575.72; 0.52489688; 1943672.8674105
4576.73; 0.51651819; 1943673.3932038
4577.75; 0.50652047; 1943673.9088197
4578.77; 0.4959715; 1943674.4136973
4579.79; 0.48563925; 1943674.9080571
4580.81; 0.4757909; 1943675.3923917
4581.82; 0.46623188; 1943675.8669957
4582.84; 0.45653855; 1943676.3317322
4583.86; 0.44636884; 1943676.7861164
4584.88; 0.43571801; 1943677.2296586
4585.90; 0.42502117; 1943677.6623118
4586.91; 0.41507328; 1943678.0848385
4587.93; 0.40680967; 1943678.4989532
4588.95; 0.40103763; 1943678.9071922
4589.97; 0.39821638; 1943679.3125592
4590.99; 0.39835191; 1943679.7180643
4592.00; 0.40102099; 1943680.1262864
4593.02; 0.4054904; 1943680.5390581
4594.04; 0.41087148; 1943680.9573075
4595.06; 0.41625509; 1943681.3810373
4596.08; 0.42079993; 1943681.8093934
4597.09; 0.42378141; 1943682.2407846
4598.11; 0.42463144; 1943682.6730411
4599.13; 0.42299821; 1943683.103635
4600.15; 0.41883306; 1943683.529989
4601.16; 0.41247915; 1943683.949875
4602.18; 0.40471219; 1943684.3618545
4603.20; 0.39668285; 1943684.7656605
4604.22; 0.38973583; 1943685.1623948
4605.24; 0.38512588; 1943685.5544363
4606.25; 0.38369723; 1943685.9450235
4607.27; 0.38562074; 1943686.3375688
4608.29; 0.39027872; 1943686.7348557
4609.31; 0.39634971; 1943687.1383226
4610.33; 0.40208665; 1943687.5476295
4611.34; 0.40572124; 1943687.9606362
4612.36; 0.40588683; 1943688.3738115
4613.38; 0.4019452; 1943688.7829743
4614.40; 0.39413092; 1943689.1841826
4615.42; 0.38348035; 1943689.5745491
4616.43; 0.37157261; 1943689.9527939
4617.45; 0.36015828; 1943690.3194195
4618.47; 0.35077487; 1943690.6764932
4619.49; 0.34444171; 1943691.02712
4620.51; 0.3414973; 1943691.3747495
4621.52; 0.34159966; 1943691.7224833
4622.54; 0.34386861; 1943692.0725267
4623.56; 0.34711903; 1943692.4258789
4624.58; 0.35012115; 1943692.7822871
4625.60; 0.35182855; 1943693.1404334
4626.61; 0.35153215; 1943693.4982779
4627.63; 0.34892342; 1943693.8534669
4628.65; 0.34407442; 1943694.2037198
4629.67; 0.33736002; 1943694.5471378
4630.69; 0.32935567; 1943694.8824076
4631.70; 0.32074; 1943695.2089071
4632.72; 0.31221854; 1943695.5267321
4633.74; 0.30446864; 1943695.836668
4634.76; 0.29809215; 1943696.140113
4635.78; 0.29355898; 1943696.4389434
4636.79; 0.29113255; 1943696.7353037
4637.81; 0.2907857; 1943697.031311
4638.83; 0.29213462; 1943697.3286915
4639.85; 0.29442941; 1943697.6284079
4640.87; 0.2966346; 1943697.9303691
4641.88; 0.29760967; 1943698.2333229
4642.90; 0.29636427; 1943698.535009
4643.92; 0.29232757; 1943698.8325858
4644.94; 0.2855515; 1943699.1232649
4645.96; 0.27677394; 1943699.4050089
4646.97; 0.26730192; 1943699.6771107
4647.99; 0.25872799; 1943699.9404846
4649.01; 0.25254771; 1943700.1975673
4650.03; 0.2497826; 1943700.4518352
4651.04; 0.25071769; 1943700.707055
4652.06; 0.25483219; 1943700.9664632
4653.08; 0.26094543; 1943701.2320943
4654.10; 0.26753631; 1943701.5044348
4655.12; 0.27314456; 1943701.7824841
4656.13; 0.27674073; 1943702.0641943
4657.15; 0.27796581; 1943702.3471514
4658.17; 0.27718249; 1943702.6293113
4659.19; 0.27533505; 1943702.9095905
4660.21; 0.27366528; 1943703.1881699
4661.22; 0.27336473; 1943703.4664434
4662.24; 0.2752518; 1943703.7466379
4663.26; 0.27954807; 1943704.0312057
4664.28; 0.28579956; 1943704.3221374
4665.30; 0.29295357; 1943704.6203515
4666.31; 0.29956992; 1943704.9253007
4667.33; 0.30412051; 1943705.2348823
4668.35; 0.30531613; 1943705.5456809
4669.37; 0.30239443; 1943705.8535054
4670.39; 0.29530907; 1943706.1541173
4671.40; 0.28477668; 1943706.4440077
4672.42; 0.27216514; 1943706.72106
4673.44; 0.25924003; 1943706.9849552
4674.46; 0.24781922; 1943707.2372245
4675.48; 0.2394102; 1943707.4809337
4676.49; 0.23491269; 1943707.7200647
4677.51; 0.23445548; 1943707.9587303
4678.53; 0.2374045; 1943708.2003978
4679.55; 0.24253579; 1943708.4472888
4680.57; 0.24832558; 1943708.7000735
4681.58; 0.25328271; 1943708.9579044
4682.60; 0.25624296; 1943709.2187486
4683.62; 0.25656202; 1943709.4799177
4684.64; 0.25417662; 1943709.7386585
4685.66; 0.24953999; 1943709.9926795
4686.67; 0.2434671; 1943710.2405185
4687.69; 0.23693928; 1943710.4817124
4688.71; 0.23091531; 1943710.7167743
4689.73; 0.22618227; 1943710.9470181
4690.75; 0.22326134; 1943711.1742885
4691.76; 0.22236874; 1943711.4006502
4692.78; 0.22342396; 1943711.6280862
4693.80; 0.22609522; 1943711.8582414
4694.82; 0.22987246; 1943712.0922416
4695.83; 0.2341574; 1943712.3306038
4696.85; 0.23835729; 1943712.5732412
4697.87; 0.24196541; 1943712.8195515
4698.89; 0.24461194; 1943713.0685559
4699.91; 0.24607551; 1943713.3190502
4700.92; 0.246259; 1943713.5697312
4701.94; 0.24514798; 1943713.8192813
4702.96; 0.24277906; 1943714.0664199
4703.98; 0.23924265; 1943714.3099586
4705.00; 0.23472772; 1943714.5489013
4706.01; 0.22959148; 1943714.7826155
4707.03; 0.22441434; 1943715.0110596
4708.05; 0.21999295; 1943715.2350029
4709.07; 0.21723849; 1943715.4561424
4710.09; 0.21698185; 1943715.6770205
4711.10; 0.21973071; 1943715.9006969
4712.12; 0.22545706; 1943716.1302025
4713.14; 0.23350087; 1943716.3678963
4714.16; 0.24264879; 1943716.6149023
4715.18; 0.25139126; 1943716.8708077
4716.19; 0.25829621; 1943717.1337421
4717.21; 0.26238805; 1943717.4008418
4718.23; 0.26340763; 1943717.6689794
4719.25; 0.26186147; 1943717.9355431
4720.27; 0.25883685; 1943718.1990279
4721.28; 0.25564048; 1943718.4592588
4722.30; 0.25338098; 1943718.7171897
4723.32; 0.252636; 1943718.9743623
4724.34; 0.25331437; 1943719.2322254
4725.36; 0.25475362; 1943719.4915536
4726.37; 0.25600892; 1943719.7521596
4727.39; 0.2562234; 1943720.012984
4728.41; 0.25494525; 1943720.2725072
4729.43; 0.25228267; 1943720.5293201
4730.45; 0.24885063; 1943720.7826393
4731.46; 0.24554055; 1943721.032589
4732.48; 0.24320409; 1943721.2801603
4733.50; 0.24236583; 1943721.5268782
4734.52; 0.24306046; 1943721.7743033
4735.54; 0.2448384; 1943722.0235382
4736.55; 0.24692231; 1943722.2748945
4737.57; 0.24844795; 1943722.5278038
4738.59; 0.24870342; 1943722.7809731
4739.61; 0.24729293; 1943723.0327066
4740.63; 0.24418766; 1943723.2812791
4741.64; 0.23966882; 1943723.5252517
4742.66; 0.2342015; 1943723.7636587
4743.68; 0.22829243; 1943723.9960505
4744.70; 0.22237783; 1943724.2224215
4745.71; 0.21676745; 1943724.4430815
4746.73; 0.21164627; 1943724.6585282
4747.75; 0.20711649; 1943724.8693639
4748.77; 0.20325398; 1943725.0762677
4749.79; 0.20015477; 1943725.2800166
4750.80; 0.19795596; 1943725.4815272
4751.82; 0.19682591; 1943725.6818875
4752.84; 0.19692818; 1943725.8823519
4753.86; 0.19837; 1943726.084284
4754.88; 0.20114952; 1943726.2890455
4755.89; 0.20511694; 1943726.4978457
4756.91; 0.20996194; 1943726.7115779
4757.93; 0.21523488; 1943726.9306777
4758.95; 0.22040099; 1943727.1550364
4759.97; 0.22491749; 1943727.3839927
4760.98; 0.22831593; 1943727.6164085
4762.00; 0.23026914; 1943727.8508125
4763.02; 0.23062606; 1943728.0855799
4764.04; 0.22940759; 1943728.3191069
4765.06; 0.22676918; 1943728.5499482
4766.07; 0.22294639; 1943728.776898
4767.09; 0.21820304; 1943728.9990192
4768.11; 0.2127972; 1943729.2156376
4769.13; 0.20696952; 1943729.4263237
4770.15; 0.2009466; 1943729.6308786
4771.16; 0.19494557; 1943729.8293248
4772.18; 0.18916714; 1943730.0218888
4773.20; 0.18377365; 1943730.2089624
4774.22; 0.178861; 1943730.3910352
4775.24; 0.17444132; 1943730.568609
4776.25; 0.17045324; 1943730.742123
4777.27; 0.16680535; 1943730.9119236
4778.29; 0.16344214; 1943731.0783007
4779.31; 0.16040632; 1943731.2415874
4780.33; 0.15786683; 1943731.402289
4781.34; 0.15609051; 1943731.5611824
4782.36; 0.15535698; 1943731.7193291
4783.38; 0.15584158; 1943731.8779691
4784.40; 0.15750951; 1943732.038307
4785.42; 0.16006702; 1943732.2012483
4786.43; 0.16299833; 1943732.3671736
4787.45; 0.16568647; 1943732.5358353
4788.47; 0.16758276; 1943732.7064273
4789.49; 0.16836743; 1943732.8778181
4790.50; 0.16804275; 1943733.0488783
4791.52; 0.16692151; 1943733.2187972
4792.54; 0.16551055; 1943733.3872798
4793.56; 0.16432764; 1943733.5545583
4794.58; 0.16371451; 1943733.7212126
4795.59; 0.16371101; 1943733.8878633
4796.61; 0.1640326; 1943734.0548414
4797.63; 0.1641562; 1943734.2219454
4798.65; 0.16348114; 1943734.3883621
4799.67; 0.16150765; 1943734.5527699
4800.68; 0.15797352; 1943734.7135802
4801.70; 0.1529093; 1943734.8692352
4802.72; 0.14660517; 1943735.018473
4803.74; 0.13951411; 1943735.1604923
4804.76; 0.1321346; 1943735.2949996
4805.77; 0.12491557; 1943735.4221583
4806.79; 0.11820907; 1943735.54249
4807.81; 0.11227111; 1943735.6567772
4808.83; 0.10729034; 1943735.7659941
4809.85; 0.10341545; 1943735.8712665
4810.86; 0.10075894; 1943735.9738348
4811.88; 0.099371625; 1943736.0749908
4812.90; 0.09920101; 1943736.1759732
4813.92; 0.1000578; 1943736.2778277
4814.94; 0.10161368; 1943736.381266
4815.95; 0.10344095; 1943736.4865645
4816.97; 0.10508694; 1943736.5935384
4817.99; 0.1061614; 1943736.7016061
4819.01; 0.10641005; 1943736.809927
4820.03; 0.10575317; 1943736.9175791
4821.04; 0.1042823; 1943737.023734
4822.06; 0.1022228; 1943737.1277924
4823.08; 0.099879692; 1943737.2294656
4824.10; 0.097584965; 1943737.3288029
4825.12; 0.095657532; 1943737.4261782
4826.13; 0.094376802; 1943737.5222497
4827.15; 0.093963273; 1943737.6179002
4828.17; 0.094558341; 1943737.7141565
4829.19; 0.096200671; 1943737.8120847
4830.21; 0.09880458; 1943737.9126635
4831.22; 0.10215173; 1943738.0166495
4832.24; 0.10590708; 1943738.1244584
4833.26; 0.1096628; 1943738.2360904
4834.28; 0.11300307; 1943738.3511226
4835.30; 0.1155729; 1943738.4687708
4836.31; 0.11713159; 1943738.5880057
4837.33; 0.11757613; 1943738.7076932
4838.35; 0.11693177; 1943738.8267247
4839.37; 0.1153189; 1943738.9441143
4840.38; 0.11291318; 1943739.0590551
4841.40; 0.10991508; 1943739.1709439
4842.42; 0.10653643; 1943739.2793934
4843.44; 0.10300019; 1943739.3842431
4844.46; 0.099540701; 1943739.4855713
4845.47; 0.096390807; 1943739.5836929
4846.49; 0.093749647; 1943739.679126
4847.51; 0.091737583; 1943739.7725109
4848.53; 0.09035591; 1943739.8644893
4849.55; 0.089472556; 1943739.9555685
4850.56; 0.088848041; 1943740.046012
4851.58; 0.088200674; 1943740.1357965
4852.60; 0.087292698; 1943740.2246567
4853.62; 0.086007856; 1943740.312209
4854.64; 0.084391284; 1943740.3981157
4855.65; 0.082635441; 1943740.482235
4856.67; 0.081016137; 1943740.5647059
4857.69; 0.079802014; 1943740.6459409
4858.71; 0.079170864; 1943740.7265334
4859.73; 0.079162477; 1943740.8071174
4860.74; 0.079681842; 1943740.8882301
4861.76; 0.080545569; 1943740.970222
4862.78; 0.081547439; 1943741.0532338
4863.80; 0.08251341; 1943741.1372289
4864.82; 0.083324427; 1943741.2220496
4865.83; 0.083902863; 1943741.307459
4866.85; 0.084177077; 1943741.3931477
4867.87; 0.084049651; 1943741.4787066
4868.89; 0.083392999; 1943741.5635971
4869.91; 0.082082141; 1943741.6471532
4870.92; 0.080054812; 1943741.7286455
4871.94; 0.077372982; 1943741.8074079
4872.96; 0.074254969; 1943741.8829962
4873.98; 0.071056482; 1943741.9553286
4875.00; 0.068198488; 1943742.0247518
4876.01; 0.066061709; 1943742.0919997
4877.03; 0.064882374; 1943742.1580472
4878.05; 0.064685326; 1943742.2238941
4879.07; 0.065278015; 1943742.2903443
4880.09; 0.066307553; 1943742.3578425
4881.10; 0.067361376; 1943742.4264135
4882.12; 0.068078571; 1943742.4957145
4883.14; 0.068238038; 1943742.5651779
4884.16; 0.067800583; 1943742.634196
4885.17; 0.066899302; 1943742.7022966
4886.19; 0.065788957; 1943742.7692669
4887.21; 0.064774584; 1943742.8352046
4888.23; 0.064140196; 1943742.9004966
4889.25; 0.06409214; 1943742.9657396
4890.26; 0.06472303; 1943743.0316248
4891.28; 0.065995835; 1943743.0988058
4892.30; 0.067745802; 1943743.1677681
4893.32; 0.069699703; 1943743.2387193
4894.34; 0.071513953; 1943743.3115175
4895.35; 0.072832218; 1943743.3856575
4896.37; 0.073357682; 1943743.4603325
4897.39; 0.072926869; 1943743.5345689
4898.41; 0.071565034; 1943743.607419
4899.43; 0.069502261; 1943743.6781693
4900.44; 0.067137192; 1943743.7465121
4901.46; 0.064950501; 1943743.8126289
4902.48; 0.063387906; 1943743.877155
4903.50; 0.062745701; 1943743.9410274
4904.52; 0.063094421; 1943744.0052548
4905.53; 0.064266169; 1943744.070675
4906.55; 0.06591094; 1943744.1377695
4907.57; 0.067604081; 1943744.2065876
4908.59; 0.068969443; 1943744.2767955
4909.61; 0.069777593; 1943744.347826
4910.62; 0.069987944; 1943744.4190708
4911.64; 0.069724338; 1943744.4900471
4912.66; 0.069197779; 1943744.5604875
4913.68; 0.068608476; 1943744.6303279
4914.70; 0.068065315; 1943744.6996155
4915.71; 0.067552306; 1943744.7683808
4916.73; 0.066952146; 1943744.8365352
4917.75; 0.066114498; 1943744.9038369
4918.77; 0.064939645; 1943744.9699427
4919.79; 0.063443203; 1943745.0345251
4920.80; 0.061775909; 1943745.0974103
4921.82; 0.060190506; 1943745.1586817
4922.84; 0.058968065; 1943745.2187086
4923.86; 0.058330804; 1943745.2780869
4924.88; 0.058372333; 1943745.3375074
4925.89; 0.059028434; 1943745.3975958
4926.91; 0.060095687; 1943745.4587706
4927.93; 0.061288188; 1943745.5211593
4928.95; 0.062310715; 1943745.5845889
4929.97; 0.062924109; 1943745.648643
4930.98; 0.062985218; 1943745.7127592
4932.00; 0.062455815; 1943745.7763365
4933.02; 0.061386877; 1943745.8388257
4934.04; 0.059891545; 1943745.8997927
4935.05; 0.058119851; 1943745.9589562
4936.07; 0.056242053; 1943746.0162082
4937.09; 0.054439099; 1943746.0716249
4938.11; 0.052892837; 1943746.1254675
4939.13; 0.051768195; 1943746.1781653
4940.14; 0.051184785; 1943746.2302692
4941.16; 0.051183594; 1943746.2823719
4942.18; 0.051701178; 1943746.3350014
4943.20; 0.052565337; 1943746.3885107
4944.22; 0.053521013; 1943746.4429928
4945.23; 0.054284774; 1943746.4982523
4946.25; 0.054614743; 1943746.5538478
4947.27; 0.054375129; 1943746.6091993
4948.29; 0.053574149; 1943746.6637355
4949.31; 0.052361716; 1943746.7170375
4950.32; 0.050986331; 1943746.7689393
4951.34; 0.049724268; 1943746.8195565
4952.36; 0.04880334; 1943746.8692362
4953.38; 0.048344904; 1943746.9184492
4954.40; 0.048340885; 1943746.9676582
4955.41; 0.048670252; 1943747.0172024
4956.43; 0.04914623; 1943747.0672311
4957.45; 0.049576282; 1943747.1176976
4958.47; 0.049814666; 1943747.1684068
4959.49; 0.049792357; 1943747.2190933
4960.50; 0.049518865; 1943747.2695013
4961.52; 0.049061002; 1943747.3194433
4962.54; 0.048510886; 1943747.3688253
4963.56; 0.047957036; 1943747.4176435
4964.58; 0.04746833; 1943747.4659642
4965.59; 0.047093081; 1943747.513903
4966.61; 0.046867965; 1943747.5616125
4967.63; 0.04682731; 1943747.6092807
4968.65; 0.047003907; 1943747.6571286
4969.67; 0.047417695; 1943747.7053978
4970.68; 0.048055858; 1943747.7543166
4971.70; 0.048853906; 1943747.8040478
4972.72; 0.04968923; 1943747.8546293
4973.74; 0.05039527; 1943747.9059295
4974.76; 0.050796829; 1943747.9576385
4975.77; 0.050758055; 1943748.009308
4976.79; 0.050227811; 1943748.0604377
4977.81; 0.049265693; 1943748.1105881
4978.83; 0.048036752; 1943748.1594874
4979.84; 0.046772955; 1943748.2071002
4980.86; 0.045710928; 1943748.253632
4981.88; 0.045024654; 1943748.2994652
4982.90; 0.044774713; 1943748.3450439
4983.92; 0.044891241; 1943748.3907412
4984.93; 0.04519706; 1943748.4367499
4985.95; 0.045464239; 1943748.4830305
4986.97; 0.045486044; 1943748.5293333
4987.99; 0.045141096; 1943748.575285
4989.01; 0.044429223; 1943748.6205121
4990.02; 0.043468145; 1943748.6647608
4991.04; 0.042453387; 1943748.7079765
4992.06; 0.0415959; 1943748.7503193
4993.08; 0.04105879; 1943748.7921154
4994.10; 0.040913803; 1943748.8337639
4995.11; 0.041130538; 1943748.875633
4996.13; 0.041599457; 1943748.9179794
4997.15; 0.042178099; 1943748.9609149
4998.17; 0.042742504; 1943749.0044249
