#Wavenumber (cm^-1); Spectrum (K*cm*km*mol^-1); Integral (K*km*mol^-1)
0.00; 19.148175; 19.492016292933
1.02; 19.723024; 39.569204090617
2.04; 21.40041; 61.353897543406
3.05; 24.044908; 85.830576295213
4.07; 27.450915; 113.77442272725
5.09; 31.371882; 145.70964509944
6.11; 35.557928; 181.90608148718
7.13; 39.796053; 222.416746014
8.14; 43.944434; 267.15028351226
9.16; 47.951311; 315.96264854737
10.18; 51.851293; 368.74502703325
11.20; 55.737725; 425.48362631507
12.22; 59.717653; 486.27362002804
13.23; 63.863169; 551.28357042737
14.25; 68.176317; 620.68411936233
15.27; 72.581932; 694.5693937071
16.29; 76.953847; 772.9050895408
17.31; 81.167303; 855.52990124895
18.32; 85.158791; 942.21787524243
19.34; 88.969016; 1032.7844941111
20.36; 92.748258; 1127.1982187724
21.38; 96.716074; 1225.6510084087
22.40; 101.08489; 1328.5510687497
23.41; 105.97305; 1436.4270571769
24.43; 111.34027; 1549.7666524497
25.45; 116.97404; 1668.8411728296
26.47; 122.53834; 1793.5799160726
27.48; 127.6743; 1923.5468430868
28.50; 132.12114; 2058.040465465
29.52; 135.81657; 2196.2958721595
30.54; 138.93997; 2337.7307646839
31.56; 141.88046; 2482.1589542515
32.57; 145.13702; 2629.9021826032
33.59; 149.18107; 2781.7620735278
34.61; 154.32438; 2938.8576312874
35.63; 160.63265; 3102.3747424432
36.65; 167.90897; 3273.2988261013
37.66; 175.74809; 3452.2027951221
38.68; 183.64083; 3639.1412370797
39.70; 191.0944; 3833.6670947732
40.72; 197.73381; 4034.9515775185
41.74; 203.35948; 4241.9627506921
42.75; 207.9525; 4453.6494262036
43.77; 211.63479; 4669.0845134266
44.79; 214.60263; 4887.5407320736
45.81; 217.05575; 5108.4941181757
46.83; 219.1411; 5331.5703052206
47.84; 220.92346; 5556.4608580878
48.86; 222.38634; 5782.8405509884
49.88; 223.45896; 6010.3121263975
50.90; 224.05913; 6238.3946489442
51.92; 224.13815; 6466.5576120115
52.93; 223.71378; 6694.2885902708
53.95; 222.88035; 6921.1711706722
54.97; 221.79202; 7146.9458794885
55.99; 220.62469; 7371.5322956868
57.01; 219.53064; 7595.0050107401
58.02; 218.60475; 7817.5352106766
59.04; 217.87833; 8039.3259503189
60.06; 217.34595; 8260.5747470201
61.08; 217.01566; 8481.4873202228
62.10; 216.95967; 8702.3428972027
63.11; 217.33762; 8923.583218455
64.13; 218.37261; 9145.8771080937
65.15; 220.27919; 9370.111820109
66.17; 223.16652; 9597.2857037397
67.19; 226.95661; 9828.3177400689
68.20; 231.36009; 10063.83232647
69.22; 235.93388; 10304.002832435
70.24; 240.21403; 10548.530352105
71.26; 243.88285; 10796.792564445
72.27; 246.90835; 11048.134606359
73.29; 249.59689; 11302.213467461
74.31; 252.52738; 11559.275441051
75.33; 256.37971; 11820.258917807
76.35; 261.71261; 12086.671057876
77.36; 268.76963; 12360.266947231
78.38; 277.38486; 12642.632766978
79.40; 287.02379; 12934.810601852
80.42; 296.94337; 13237.086141354
81.44; 306.40906; 13548.99733743
82.45; 314.88566; 13869.537353646
83.47; 322.13171; 14197.453537941
84.49; 328.16872; 14531.515134902
85.51; 333.15014; 14870.647604934
86.53; 337.19668; 15213.899272391
87.54; 340.27724; 15560.286816025
88.56; 342.19297; 15908.624492915
89.58; 342.6744; 16257.45224969
90.60; 341.54969; 16605.13509759
91.62; 338.90753; 16950.128341774
92.63; 335.17668; 17291.323736978
93.65; 331.07587; 17628.344686256
94.67; 327.44047; 17961.664953055
95.69; 324.98293; 18292.483554364
96.71; 324.07283; 18622.375706805
97.72; 324.61667; 18952.821472105
98.74; 326.08153; 19284.758394341
99.76; 327.65368; 19618.295703303
100.78; 328.47657; 19952.670673505
101.80; 327.88731; 20286.445807773
102.81; 325.57778; 20617.869936663
103.83; 321.638; 20945.283538566
104.85; 316.48377; 21267.45036374
105.87; 310.70807; 21583.737774014
106.89; 304.91449; 21894.127565854
107.90; 299.58639; 22199.093586126
108.92; 295.02255; 22499.413809544
109.94; 291.34076; 22795.986133263
110.96; 288.52762; 23089.694799723
111.98; 286.50239; 23381.341873764
112.99; 285.16773; 23671.630317682
114.01; 284.43362; 23961.17146716
115.03; 284.21652; 24250.491621907
116.05; 284.42565; 24540.02466379
117.07; 284.9503; 24830.091773573
118.08; 285.65725; 25120.878529467
119.10; 286.39985; 25412.421216843
120.12; 287.03424; 25704.609686208
121.14; 287.43641; 25997.207551068
122.15; 287.51514; 26289.885556126
123.17; 287.21889; 26582.261996783
124.19; 286.53689; 26873.944188194
125.21; 285.49443; 27164.56519445
126.23; 284.14168; 27453.809166485
127.24; 282.53484; 27741.417443302
128.26; 280.71027; 28027.168383755
129.28; 278.65689; 28310.829076097
130.30; 276.29659; 28592.087082596
131.32; 273.48466; 28870.482666355
132.33; 270.03968; 29145.371406733
133.35; 265.80366; 29415.948058572
134.37; 260.7216; 29681.351401013
135.39; 254.91848; 29940.847414783
136.41; 248.74597; 30194.060074836
137.42; 242.77491; 30441.194461128
138.44; 237.72212; 30683.185321976
139.46; 234.31916; 30921.712113316
140.48; 233.15071; 31159.049478006
141.50; 234.50356; 31397.763983662
142.51; 238.26967; 31640.312224285
143.53; 243.93606; 31888.62860746
144.55; 250.67214; 32143.802028954
145.57; 257.49812; 32405.924003372
146.59; 263.49422; 32674.149746288
147.60; 267.99701; 32946.959141002
148.62; 270.73167; 33222.552299111
149.64; 271.84657; 33499.280374628
150.66; 271.84516; 33776.007012115
151.68; 271.43961; 34052.320822552
152.69; 271.37232; 34328.566129123
153.71; 272.25709; 34605.7120962
154.73; 274.48066; 34885.121559563
155.75; 278.1805; 35168.29730691
156.77; 283.2874; 35456.671654077
157.78; 289.60032; 35751.472283069
158.80; 296.85585; 36053.65872661
159.82; 304.76508; 36363.896424002
160.84; 313.01299; 36682.53014167
161.86; 321.2379; 37009.536460434
162.87; 329.02123; 37344.465873822
163.89; 335.91462; 37686.412461131
164.91; 341.51309; 38034.058052788
165.93; 345.55854; 38385.821732876
166.94; 348.03833; 38740.109738862
167.96; 349.2394; 39095.620379966
168.98; 349.73102; 39451.631464533
170.00; 350.27504; 39808.196342409
171.02; 351.68842; 40166.199974293
172.03; 354.69812; 40527.267359134
173.05; 359.82672; 40893.555430807
174.07; 367.32897; 41267.480469514
175.09; 377.17691; 41651.430283168
176.11; 389.07385; 42047.490672531
177.12; 402.47673; 42457.194616174
178.14; 416.62011; 42881.295905662
179.16; 430.5558; 43319.583128163
180.18; 443.23513; 43770.777365462
181.20; 453.65516; 44232.578739292
182.21; 461.06397; 44701.921963603
183.23; 465.18311; 45175.458294741
184.25; 466.37506; 45650.207976335
185.27; 465.67897; 46124.24907003
186.29; 464.66691; 46597.259931687
187.30; 465.12941; 47070.741597405
188.32; 468.66307; 47547.820378582
189.34; 476.27775; 48032.650577264
190.36; 488.14558; 48529.561715544
191.38; 503.57348; 49042.177790225
192.39; 521.20831; 49572.745360247
193.41; 539.40693; 50121.838340365
194.43; 556.65231; 50688.486374384
195.45; 571.89085; 51270.646585584
196.47; 584.70565; 51865.851711013
197.48; 595.30683; 52471.848372699
198.50; 604.38381; 53087.085007838
199.52; 612.8997; 53710.990458727
200.54; 621.90249; 54344.06036159
201.56; 632.3903; 54987.806395506
202.57; 645.22116; 55644.613692551
203.59; 661.02783; 56317.511499393
204.61; 680.10133; 57009.825303084
205.63; 702.24156; 57724.676911041
206.65; 726.61988; 58464.344589043
207.66; 751.72963; 59229.572914686
208.68; 775.49617; 60018.994551581
209.70; 795.57209; 60828.852612067
210.72; 809.77438; 61653.167990055
211.74; 816.55571; 62484.38646236
212.75; 815.373; 63314.400992833
213.77; 806.83764; 64135.726895195
214.79; 792.59708; 64942.556517914
215.81; 774.98251; 65731.455274782
216.82; 756.52738; 66501.56749882
217.84; 739.49064; 67254.337062074
218.86; 725.4993; 67992.864044045
219.88; 715.36856; 68721.078371684
220.90; 709.09398; 69442.905448143
221.91; 705.96458; 70161.546922357
222.93; 704.73553; 70878.937284804
223.95; 703.82009; 71595.395766476
224.97; 701.49301; 72309.485375965
225.99; 696.11927; 73018.104755524
227.00; 686.41542; 73716.84602813
228.02; 671.7188; 74400.626780851
229.04; 652.20113; 75064.539383603
230.06; 628.9417; 75704.774896452
231.08; 603.79351; 76319.410639082
232.09; 579.03244; 76908.840680478
233.11; 556.85828; 77475.698384902
234.13; 538.88298; 78024.258004141
235.15; 525.76515; 78559.464234994
236.17; 517.1147; 79085.864688513
237.18; 511.70572; 79606.75903272
238.20; 507.93016; 80123.810020948
239.22; 504.34039; 80637.206773314
240.24; 500.09773; 81146.284681611
241.26; 495.18027; 81650.356827532
242.27; 490.29134; 82149.452250837
243.29; 486.51669; 82644.705250189
244.31; 484.86276; 83138.274618036
245.33; 485.84055; 83632.839337216
246.35; 489.23206; 84130.856462642
247.36; 494.10283; 84633.831824853
248.38; 499.03731; 85141.830271936
249.40; 502.50453; 85653.35819921
250.42; 503.23335; 86165.628034994
251.44; 500.49157; 86675.106857125
252.45; 494.20942; 87178.190724972
253.47; 484.94272; 87671.841488862
254.49; 473.7138; 88154.061691265
255.51; 461.7883; 88624.142254523
256.53; 450.4434; 89082.67420244
257.54; 440.76731; 89531.356300506
258.56; 433.51245; 89972.653269344
259.58; 429.0126; 90409.369582942
260.60; 427.16785; 90844.20802182
261.61; 427.49754; 91279.38207425
262.63; 429.25388; 91716.34400066
263.65; 431.57774; 92155.671517223
264.67; 433.66608; 92597.124871106
265.69; 434.91402; 93039.848571446
266.70; 435.00003; 93482.659835989
267.72; 433.89977; 93924.351080867
268.74; 431.83728; 94363.942800259
269.76; 429.20228; 94800.852199239
270.78; 426.46866; 95234.978894819
271.79; 424.14011; 95666.735224415
272.81; 422.72698; 96097.053048954
273.83; 422.7362; 96527.380260385
274.85; 424.6442; 96959.649728634
275.87; 428.82975; 97396.179912992
276.88; 435.46746; 97839.466998359
277.90; 444.41237; 98291.859615636
278.92; 455.12763; 98755.159908236
279.94; 466.70632; 99230.246806403
280.96; 478.01235; 99716.842747009
281.97; 487.92126; 100213.52553583
282.99; 495.59699; 100718.02188193
284.01; 500.71457; 101227.72770985
285.03; 503.5462; 101740.31601727
286.05; 504.86843; 102254.25029731
287.06; 505.71033; 102769.04159062
288.08; 507.02186; 103285.16796056
289.10; 509.3754; 103803.69013856
290.12; 512.80593; 104325.70444966
291.14; 516.84721; 104851.83260343
292.15; 520.74974; 105381.93336591
293.17; 523.79793; 105915.13705389
294.19; 525.60602; 106450.18130147
295.21; 526.28125; 106985.91290556
296.23; 526.39541; 107521.76071815
297.24; 526.78272; 108058.00279449
298.26; 528.25171; 108595.74024456
299.28; 531.33256; 109136.61386427
300.30; 536.16404; 109682.40572406
301.32; 542.56211; 110234.71053985
302.33; 550.22978; 110794.82070923
303.35; 559.00125; 111363.85986066
304.37; 568.99172; 111943.06888
305.39; 580.56034; 112534.05425628
306.41; 594.0754; 113138.79738079
307.42; 609.56463; 113759.30786738
308.44; 626.39947; 114396.95549971
309.46; 643.16896; 115051.67374569
310.48; 657.83821; 115721.32465748
311.49; 668.17987; 116401.5029319
312.51; 672.35455; 117085.93084874
313.53; 669.44577; 117767.39775826
314.55; 659.75699; 118439.00189955
315.57; 644.75591; 119095.33559361
316.58; 626.67671; 119733.26543785
317.60; 607.91404; 120352.09570237
318.62; 590.4166; 120953.11432377
319.64; 575.28108; 121538.72563808
320.66; 562.66517; 122111.49450141
321.67; 552.01305; 122673.41997017
322.69; 542.47153; 123225.63257769
323.71; 533.3146; 123768.52382504
324.73; 524.21141; 124302.14841777
325.75; 515.25535; 124826.6561326
326.76; 506.78227; 125342.538612
327.78; 499.09412; 125850.59488541
328.80; 492.23438; 126351.66824549
329.82; 485.9229; 126846.3167871
330.84; 479.67251; 127334.60270483
331.85; 473.0194; 127816.11604303
332.87; 465.74564; 128290.22500628
333.89; 457.98061; 128756.42950431
334.91; 450.13178; 129214.64423179
335.93; 442.68353; 129665.27696508
336.94; 435.97222; 130109.07787021
337.96; 430.06219; 130546.86261976
338.98; 424.80177; 130979.29249277
340.00; 420.04975; 131406.88500977
341.02; 415.97215; 131830.32670562
342.03; 413.25903; 132251.00656627
343.05; 413.127; 132671.55202062
344.07; 417.05287; 133096.09384306
345.09; 426.29625; 133530.04502779
346.11; 441.36715; 133979.33773917
347.12; 461.63777; 134449.26507003
348.14; 485.26417; 134943.24305803
349.16; 509.48395; 135461.8757359
350.18; 531.22634; 136002.64122608
351.20; 547.85923; 136560.33827815
352.21; 557.84507; 137128.20048996
353.23; 561.10329; 137699.37942692
354.25; 558.97096; 138268.38774069
355.27; 553.78251; 138832.11443898
356.28; 548.20767; 139390.16619195
357.30; 544.55559; 139944.50028703
358.32; 544.25157; 140498.5248954
359.34; 547.62485; 141055.98336349
360.36; 554.03841; 141619.97056183
361.37; 562.2813; 142192.34866421
362.39; 571.06838; 142773.67162934
363.41; 579.47258; 143363.54970789
364.43; 587.15459; 143961.24774015
365.45; 594.33653; 144566.2566818
366.46; 601.56013; 145178.61893399
367.48; 609.34298; 145798.90379476
368.50; 617.87542; 146427.87430572
369.52; 626.87643; 147066.00746439
370.54; 635.66141; 147713.08334938
371.55; 643.39098; 148368.02760637
372.57; 649.40066; 149029.08945059
373.59; 653.47931; 149694.30318544
374.61; 655.98342; 150362.06600372
375.63; 657.73534; 151031.61219973
376.64; 659.73533; 151703.194293
377.66; 662.78848; 152377.88436498
378.68; 667.1814; 153057.04623768
379.70; 672.52705; 153741.64975383
380.72; 677.8355; 154431.6570385
381.73; 681.78535; 155125.68510378
382.75; 683.09782; 155821.04920388
383.77; 680.87937; 156514.15502009
384.79; 674.81445; 157201.08701062
385.81; 665.14994; 157878.18095147
386.82; 652.49504; 158542.39275018
387.84; 637.5316; 159191.37240494
388.86; 620.763; 159823.28235295
389.88; 602.41121; 160436.51096899
390.90; 582.50848; 161029.47946371
391.91; 561.14788; 161600.70378646
392.93; 538.78666; 162149.16535358
393.95; 516.4672; 162674.90667515
394.97; 495.8432; 163179.65365797
395.99; 478.96614; 163667.22052046
397.00; 467.87319; 164143.49524064
398.02; 464.09112; 164615.91997387
399.04; 468.20422; 165092.53166919
400.06; 479.61777; 165580.76185784
401.07; 496.58929; 166086.26832327
402.09; 516.52213; 166612.06556701
403.11; 536.44603; 167158.14447968
404.13; 553.57013; 167721.65498462
405.15; 565.7917; 168297.6065193
406.16; 572.07073; 168879.94983763
407.18; 572.61972; 169462.85200291
408.20; 568.89211; 170041.95962274
409.22; 563.37401; 170615.45004929
410.24; 559.19535; 171184.68678061
411.25; 559.59042; 171754.32568484
412.27; 567.26373; 172331.77568426
413.29; 583.75643; 172926.01453989
414.31; 608.94783; 173545.89715529
415.33; 640.84183; 174198.24647995
416.34; 675.75821; 174886.13917598
417.36; 708.9652; 175607.83516115
418.38; 735.66718; 176356.71260031
419.40; 752.13729; 177122.35590607
420.42; 756.70536; 177892.64931216
421.43; 750.31411; 178656.4366989
422.45; 736.4545; 179406.11560055
423.47; 720.45964; 180139.51242527
424.49; 708.32486; 180860.55656516
425.51; 705.36584; 181578.58855154
426.52; 715.07629; 182306.5053602
427.54; 738.48313; 183058.24932257
428.56; 774.14221; 183846.29268748
429.58; 818.7246; 184679.71900182
430.60; 867.97774; 185563.28288619
431.61; 917.76006; 186497.52302319
432.63; 964.86412; 187479.71306419
433.65; 1007.4465; 188505.25017738
434.67; 1045.0294; 189569.0449777
435.69; 1078.1725; 190666.5780294
436.70; 1107.9958; 191794.46996925
437.72; 1135.7332; 192950.59735154
438.74; 1162.4362; 194133.90728586
439.76; 1188.8521; 195344.10740249
440.78; 1215.4116; 196581.34399356
441.79; 1242.2274; 197845.87786442
442.81; 1269.0233; 199137.68883375
443.83; 1294.997; 200455.93987147
444.85; 1318.7093; 201798.32899111
445.87; 1338.1622; 203160.52034434
446.88; 1351.2158; 204535.99975048
447.90; 1356.392; 205916.74824166
448.92; 1353.9335; 207294.99407911
449.94; 1346.797; 208665.97533023
450.95; 1341.1388; 210031.19672884
451.97; 1345.8898; 211401.25446855
452.99; 1371.2482; 212797.12597119
454.01; 1426.2954; 214249.03313982
455.03; 1516.357; 215792.61916196
456.04; 1641.0038; 217463.09022202
457.06; 1793.5694; 219288.86644801
458.08; 1962.6846; 221286.79471947
459.10; 2135.6625; 223460.80699441
460.12; 2302.8265; 225804.9849806
461.13; 2461.3498; 228310.5329049
462.15; 2617.1142; 230974.64225334
463.17; 2783.6123; 233808.23941083
464.19; 2977.8904; 236839.603287
465.21; 3214.6313; 240111.9592572
466.22; 3500.2881; 243675.1014633
467.24; 3829.3453; 247573.20978231
468.26; 4184.1775; 251832.52196965
469.28; 4538.763; 256452.78682108
470.30; 4865.1461; 261405.29560572
471.31; 5140.5399; 266638.14336644
472.33; 5352.7417; 272087.00341005
473.35; 5502.2041; 277688.00977815
474.37; 5600.3965; 283388.97177795
475.39; 5665.4844; 289156.19045091
476.40; 5717.2626; 294976.11703581
477.42; 5773.3232; 300853.11097203
478.44; 5847.6243; 306805.74020532
479.46; 5951.3241; 312863.93135207
480.48; 6094.5812; 319067.95198388
481.49; 6287.5343; 325468.39060435
482.51; 6539.1309; 332124.94370578
483.53; 6853.6697; 339101.68370766
484.55; 7226.3158; 346457.76136267
485.57; 7639.7489; 354234.69611257
486.58; 8064.0357; 362443.53647655
487.60; 8460.7155; 371056.1797375
488.62; 8790.3795; 380004.40672777
489.64; 9021.4393; 389187.84266208
490.66; 9137.052; 398488.96734083
491.67; 9137.6774; 407790.72865479
492.69; 9038.3449; 416991.37369751
493.71; 8861.7615; 426012.26454864
494.73; 8630.0411; 434797.27400838
495.74; 8358.3508; 443305.71448564
496.76; 8052.9231; 451503.24274417
497.78; 7713.9916; 459355.75333029
498.80; 7342.087; 466829.68108263
499.82; 6944.6738; 473899.05931289
500.83; 6539.9505; 480556.4467547
501.85; 6155.8544; 486822.84087353
502.87; 5824.3812; 492751.80961174
503.89; 5573.3771; 498425.26695616
504.91; 5419.0896; 503941.66633293
505.92; 5362.5081; 509400.46813259
506.94; 5390.9681; 514888.24105869
507.96; 5484.3145; 520471.03654357
508.98; 5623.0177; 526195.02594203
510.00; 5794.8358; 532093.91870307
511.01; 5997.2277; 538198.83769039
512.03; 6234.5143; 544545.30417739
513.05; 6510.9951; 551173.21625612
514.07; 6822.9673; 558118.70254271
515.09; 7153.1446; 565400.29505024
516.10; 7470.1322; 573004.56724922
517.12; 7733.7115; 580877.15179043
518.14; 7904.4858; 588923.57726764
519.16; 7954.7778; 597021.19781038
520.18; 7877.1611; 605039.80789207
521.19; 7687.8073; 612865.66402248
522.21; 7423.5826; 620422.55075157
523.23; 7133.8642; 627684.51667765
524.25; 6869.6331; 634677.50670923
525.27; 6673.0165; 641470.34959912
526.28; 6569.9985; 648158.32459931
527.30; 6567.7527; 654844.01343279
528.32; 6656.5276; 661620.07123838
529.34; 6814.774; 668557.21706514
530.36; 7015.6248; 675698.82040787
531.37; 7232.9794; 683061.68135085
532.39; 7446.0915; 690641.48117282
533.41; 7642.3378; 698421.05129757
534.43; 7818.4056; 706379.85084237
535.45; 7980.3058; 714503.45777498
536.46; 8142.4496; 722792.12010159
537.48; 8325.7418; 731267.36593979
538.50; 8554.5135; 739975.49152809
539.52; 8852.3055; 748986.7565388
540.54; 9236.9809; 758389.60448209
541.55; 9716.1769; 768280.25328021
542.57; 10284.386; 778749.31415384
543.59; 10922.748; 789868.20047836
544.61; 11601.919; 801678.45340992
545.62; 12287.337; 814186.4326954
546.64; 12945.314; 827364.20401561
547.66; 13547.949; 841155.4317328
548.68; 14075.263; 855483.44186501
549.70; 14514.006; 870258.07395249
550.71; 14854.017; 885378.82258883
551.73; 15084.144; 900733.83066576
552.75; 15190.152; 916196.75013017
553.77; 15156.376; 931625.28663659
554.79; 14971.379; 946865.50461713
555.80; 14636.029; 961764.35021128
556.82; 14170.942; 976189.75739648
557.84; 13619.868; 990054.19523008
558.86; 13046.467; 1003334.9358496
559.88; 12523.974; 1016083.8005223
560.89; 12119.701; 1028421.1331736
561.91; 11878.399; 1040512.8307306
562.93; 11809.333; 1052534.2226369
563.95; 11881.28; 1064628.853302
564.97; 12027.529; 1076872.3590437
565.98; 12160.157; 1089250.8745449
567.00; 12190.123; 1101659.8938164
568.02; 12048.009; 1113924.2467979
569.04; 11700.018; 1125834.3599061
570.06; 11155.139; 1137189.8104227
571.07; 10461.821; 1147839.4923981
572.09; 9695.2898; 1157708.879018
573.11; 8939.0842; 1166808.4809503
574.13; 8265.7023; 1175222.6092301
575.15; 7721.3237; 1183082.5835902
576.16; 7318.2714; 1190532.2681267
577.18; 7036.7118; 1197695.3371275
578.20; 6834.5822; 1204652.6469005
579.22; 6662.5673; 1211434.8529328
580.24; 6479.6733; 1218030.8807871
581.25; 6264.9195; 1224408.2985137
582.27; 6021.9054; 1230538.3383653
583.29; 5775.195; 1236417.2376643
584.31; 5559.9723; 1242077.0495242
585.33; 5408.5147; 1247582.6840568
586.34; 5338.0273; 1253016.565508
587.36; 5343.9199; 1258456.4453462
588.38; 5400.784; 1263954.2104439
589.40; 5470.7165; 1269523.1637795
590.41; 5516.1053; 1275138.32097
591.43; 5512.4468; 1280749.7539095
592.45; 5456.7611; 1286304.5012197
593.47; 5368.7502; 1291769.6572974
594.49; 5284.4318; 1297148.9808333
595.50; 5244.6369; 1302487.7948962
596.52; 5282.4934; 1307865.1452703
597.54; 5414.1868; 1313376.5537525
598.56; 5635.8691; 1319113.6252959
599.58; 5927.1561; 1325147.2144689
600.59; 6259.179; 1331518.7885505
601.61; 6603.617; 1338240.9856762
602.63; 6939.0929; 1345304.6828053
603.65; 7252.7198; 1352687.6386147
604.67; 7536.8197; 1360359.7958753
605.68; 7782.9369; 1368282.4898241
606.70; 7976.3893; 1376402.1099671
607.72; 8094.306; 1384641.7642259
608.74; 8108.5601; 1392895.9284702
609.76; 7992.8912; 1401032.3468283
610.77; 7731.7064; 1408902.890286
611.79; 7327.2635; 1416361.7283656
612.81; 6802.4693; 1423286.3485238
613.83; 6198.0918; 1429595.738529
614.85; 5565.1613; 1435260.8325575
615.86; 4954.9304; 1440304.7378768
616.88; 4409.4366; 1444793.354101
617.90; 3955.2728; 1448819.6511433
618.92; 3601.9023; 1452486.2322971
619.94; 3344.2909; 1455890.576135
620.95; 3168.3511; 1459115.8207977
621.97; 3057.1106; 1462227.8274324
622.99; 2995.7053; 1465277.3261602
624.01; 2974.0576; 1468304.7884574
625.03; 2987.0601; 1471345.486706
626.04; 3032.8775; 1474432.8251484
627.06; 3110.3814; 1477599.0591547
628.08; 3216.7133; 1480873.5344774
629.10; 3345.6664; 1484279.2785432
630.12; 3487.1657; 1487829.0627814
631.13; 3627.7901; 1491521.9965094
632.15; 3752.0839; 1495341.4560489
633.17; 3844.3452; 1499254.8335241
634.19; 3890.5868; 1503215.2829673
635.21; 3880.3992; 1507165.3618976
636.22; 3808.4552; 1511042.2049336
637.24; 3675.4225; 1514783.626482
638.26; 3488.1043; 1518334.3660971
639.28; 3258.7312; 1521651.6138222
640.29; 3003.4761; 1524709.0228467
641.31; 2740.4034; 1527498.6353002
642.33; 2487.1763; 1530030.4734633
643.35; 2258.8796; 1532329.9154484
644.37; 2066.2925; 1534433.3120394
645.38; 1914.8618; 1536382.5586785
646.40; 1804.5232; 1538219.4854111
647.42; 1730.3966; 1539980.9545071
648.44; 1684.2527; 1541695.4510478
649.46; 1656.5129; 1543381.7097007
650.47; 1638.4204; 1545049.5509626
651.49; 1623.9356; 1546702.6473189
652.51; 1610.9198; 1548342.4942065
653.53; 1601.2963; 1549972.5447532
654.55; 1600.1196; 1551601.3974767
655.56; 1613.7867; 1553244.162652
656.58; 1647.8871; 1554921.640629
657.60; 1705.3249; 1556657.5878085
658.62; 1785.2776; 1558474.9233994
659.64; 1883.3069; 1560392.0486009
660.65; 1992.5673; 1562420.3960941
661.67; 2105.7084; 1564563.9164145
662.69; 2216.8561; 1566820.580227
663.71; 2323.053; 1569185.3479053
664.73; 2424.751; 1571653.6397548
665.74; 2525.2718; 1574224.2574507
666.76; 2629.485; 1576900.9597083
667.78; 2742.1658; 1579692.3661154
668.80; 2866.5325; 1582610.3724687
669.82; 3003.3358; 1585667.6386988
670.83; 3150.6431; 1588874.857374
671.85; 3304.2338; 1592238.4248259
672.87; 3458.3715; 1595758.8978134
673.89; 3606.6804; 1599430.3427751
674.91; 3742.9197; 1603240.4735427
675.92; 3861.5623; 1607171.3773541
676.94; 3958.1855; 1611200.6394351
677.96; 4029.7425; 1615302.7434152
678.98; 4074.7748; 1619450.688337
680.00; 4093.5846; 1623617.7808596
681.01; 4088.3288; 1627779.523191
682.03; 4062.9612; 1631915.442362
683.05; 4022.948; 1636010.6297898
684.07; 3974.7146; 1640056.7177494
685.08; 3924.8424; 1644052.03795
686.10; 3879.1051; 1648000.7995233
687.12; 3841.5056; 1651911.2864585
688.14; 3813.5221; 1655793.2874046
689.16; 3793.7814; 1659655.1931448
690.17; 3778.3289; 1663501.3689597
691.19; 3761.547; 1667330.4615164
692.21; 3737.5998; 1671135.1768216
693.23; 3702.0983; 1674903.7531283
694.25; 3653.5427; 1678622.9019597
695.26; 3594.0813; 1682281.5216809
696.28; 3529.2665; 1685874.1627187
697.30; 3466.7747; 1689403.1897913
698.32; 3414.4127; 1692878.914547
699.34; 3378.033; 1696317.6063979
700.35; 3360.1006; 1699738.0438125
701.37; 3359.505; 1703157.8749413
702.39; 3372.8182; 1706591.2582805
703.41; 3396.6587; 1710048.910239
704.43; 3430.3388; 1713540.8471127
705.44; 3477.7285; 1717081.0246174
706.46; 3547.4055; 1720692.1303644
707.48; 3650.6708; 1724408.3557376
708.50; 3797.7486; 1728274.2999293
709.52; 3993.2185; 1732339.2240073
710.53; 4232.1657; 1736647.3860892
711.55; 4498.4998; 1741226.6647463
712.57; 4766.3428; 1746078.5960874
713.59; 5004.4786; 1751172.9393576
714.61; 5182.8603; 1756448.8675006
715.62; 5279.4434; 1761823.1131002
716.64; 5285.3917; 1767203.413792
717.66; 5207.1033; 1772504.0202691
718.68; 5064.4081; 1777659.3691702
719.70; 4885.4142; 1782632.5100452
720.71; 4699.472; 1787416.3697939
721.73; 4530.2558; 1792027.9747518
722.75; 4390.8738; 1796497.6948236
723.77; 4282.2404; 1800856.8307577
724.79; 4194.9162; 1805127.0743829
725.80; 4113.5772; 1809314.5184996
726.82; 4022.5528; 1813409.3037139
727.84; 3910.6811; 1817390.2082866
728.86; 3774.1086; 1821232.0879948
729.88; 3616.4404; 1824913.468301
730.89; 3446.5466; 1828421.9039785
731.91; 3275.0496; 1831755.7631576
732.93; 3110.8243; 1834922.4480344
733.95; 2958.672; 1837934.2484515
734.96; 2818.7896; 1840803.65464
735.98; 2687.9539; 1843539.8757592
737.00; 2561.7517; 1846147.6284156
738.02; 2436.8965; 1848628.283889
739.04; 2312.7647; 1850982.5785859
740.05; 2191.6777; 1853213.6118802
741.07; 2077.9853; 1855328.9112756
742.09; 1976.4531; 1857340.8552602
743.11; 1890.6583; 1859265.4637815
744.13; 1822.0124; 1861120.1937652
745.14; 1769.7053; 1862921.6773481
746.16; 1731.4618; 1864684.2307476
747.18; 1704.6895; 1866419.5311419
748.20; 1687.4846; 1868137.3176973
749.22; 1679.087; 1869846.5557804
750.23; 1679.6539; 1871556.3709503
751.25; 1689.5277; 1873276.2372573
752.27; 1708.3705; 1875015.284707
753.29; 1734.5581; 1876780.9900308
754.31; 1765.0755; 1878577.7607602
755.32; 1795.9188; 1880405.9285996
756.34; 1822.8039; 1882261.4642647
757.36; 1841.8947; 1884136.4336009
758.38; 1850.3209; 1886019.9804443
759.40; 1846.4074; 1887899.5435441
760.41; 1829.6986; 1889762.0978006
761.43; 1800.9333; 1891595.3702157
762.45; 1762.085; 1893389.0967049
763.47; 1716.4497; 1895136.3684438
764.49; 1668.6312; 1896834.9629877
765.50; 1624.2276; 1898488.3565759
766.52; 1589.1166; 1900106.008668
767.54; 1568.4357; 1901702.6085205
768.56; 1565.5682; 1903296.2893701
769.58; 1581.5498; 1904906.2387848
770.59; 1615.2261; 1906550.469258
771.61; 1664.2162; 1908244.5694982
772.63; 1726.375; 1910001.9447667
773.65; 1801.1611; 1911835.4490389
774.67; 1890.25; 1913759.6419235
775.68; 1996.9654; 1915792.4665366
776.70; 2124.5603; 1917955.1772379
777.72; 2273.8978; 1920269.9070491
778.74; 2441.4387; 1922755.1863101
779.75; 2618.4556; 1925420.6611641
780.77; 2792.0237; 1928262.820808
781.79; 2947.6992; 1931263.4513535
782.81; 3073.1256; 1934391.7605574
783.83; 3161.3771; 1937609.9060045
784.84; 3212.8488; 1940880.4473981
785.86; 3234.9586; 1944173.4956809
786.88; 3239.6828; 1947471.3529695
787.90; 3239.7185; 1950769.2465711
788.92; 3244.5663; 1954072.0750807
789.93; 3257.8505; 1957388.4262821
790.95; 3276.7392; 1960724.0054094
791.97; 3293.5684; 1964076.7158897
792.99; 3298.9903; 1967434.9456502
794.01; 3285.4659; 1970779.4082101
795.02; 3249.8619; 1974087.6273963
796.04; 3194.3087; 1977339.2958545
797.06; 3125.1524; 1980520.5661133
798.08; 3050.5203; 1983625.8641698
799.10; 2977.4761; 1986656.8063333
800.11; 2909.801; 1989618.8581904
801.13; 2847.1325; 1992517.1161955
802.15; 2785.6453; 1995352.7828715
803.17; 2719.9082; 1998121.532059
804.19; 2645.1786; 2000814.2097326
805.20; 2559.3214; 2003419.4885174
806.22; 2463.7506; 2005927.4802687
807.24; 2363.1744; 2008333.089814
808.26; 2264.3352; 2010638.0853814
809.28; 2174.2204; 2012851.3479153
810.29; 2098.3191; 2014987.3462466
811.31; 2039.4063; 2017063.3738933
812.33; 1997.1112; 2019096.3469505
813.35; 1968.2737; 2021099.9645946
814.37; 1947.8796; 2023082.8219417
815.38; 1930.2553; 2025047.7385398
816.40; 1910.1956; 2026992.2352445
817.42; 1883.7847; 2028909.8467754
818.44; 1848.8002; 2030791.8455854
819.46; 1804.7256; 2032628.9783421
820.47; 1752.4961; 2034412.9437468
821.49; 1694.1434; 2036137.5086025
822.51; 1632.4776; 2037799.3003787
823.53; 1570.868; 2039398.3761844
824.55; 1513.0847; 2040938.6311431
825.56; 1463.0949; 2042427.9986298
826.58; 1424.6922; 2043878.2737607
827.60; 1400.9083; 2045304.3379587
828.62; 1393.2781; 2046722.6349239
829.63; 1401.1587; 2048148.9540478
830.65; 1421.3805; 2049595.8580443
831.67; 1448.4704; 2051070.3384501
832.69; 1475.5426; 2052572.3771482
833.71; 1495.7229; 2054094.9584947
834.72; 1503.7614; 2055625.7227452
835.74; 1497.3663; 2057149.9770365
836.76; 1477.8314; 2058654.3456201
837.78; 1449.7286; 2060130.1067719
838.80; 1419.7244; 2061575.324978
839.81; 1394.86; 2062995.232287
840.83; 1380.799; 2064400.8260809
841.85; 1380.5399; 2065806.1561075
842.87; 1393.9182; 2067225.104642
843.89; 1417.9586; 2068668.5253427
844.90; 1447.8819; 2070142.4066105
845.92; 1478.4075; 2071647.3616285
846.94; 1504.9734; 2073179.3595606
847.96; 1524.5879; 2074731.3242688
848.98; 1536.1934; 2076295.10287
849.99; 1540.574; 2077863.3407736
851.01; 1539.9433; 2079430.9365668
852.03; 1537.3762; 2080995.9191587
853.05; 1536.2331; 2082559.7381738
854.07; 1539.678; 2084127.0639235
855.08; 1550.3518; 2085705.2551899
856.10; 1570.2257; 2087303.6771496
857.12; 1600.6186; 2088933.0378207
858.14; 1642.3268; 2090604.8556103
859.16; 1695.7721; 2092331.0784749
860.17; 1761.0719; 2094123.7737187
861.19; 1837.9643; 2095994.7420548
862.21; 1925.6038; 2097954.9236769
863.23; 2022.3314; 2100013.5697587
864.25; 2125.5732; 2102177.3115323
865.26; 2231.9986; 2104449.3898015
866.28; 2337.9524; 2106829.3244534
867.30; 2440.0271; 2109313.1667371
868.32; 2535.5331; 2111894.2300289
869.34; 2622.6343; 2114563.9585511
870.35; 2700.0708; 2117312.5140763
871.37; 2766.6345; 2120128.8285977
872.39; 2820.7735; 2123000.2542842
873.41; 2860.7496; 2125912.3739328
874.42; 2885.5848; 2128849.774764
875.44; 2896.647; 2131798.43639
876.46; 2899.301; 2134749.7996615
877.48; 2903.8; 2137705.7427422
878.50; 2924.6818; 2140682.9426166
879.51; 2978.4006; 2143714.8258592
880.53; 3079.6207; 2146849.7467998
881.55; 3237.2482; 2150145.1257664
882.57; 3451.5768; 2153658.6820378
883.59; 3713.6988; 2157439.0671723
884.60; 4007.6076; 2161518.6387624
885.62; 4314.4517; 2165910.5644498
886.64; 4617.5691; 2170611.0505167
887.66; 4906.586; 2175605.7432871
888.68; 5179.1722; 2180877.917071
889.69; 5439.9006; 2186415.501104
890.71; 5696.7414; 2192214.5380733
891.73; 5956.6064; 2198278.1063973
892.75; 6221.6977; 2204611.5262067
893.77; 6488.0945; 2211216.1263904
894.78; 6747.1533; 2218084.4373005
895.80; 6989.2468; 2225199.188905
896.82; 7208.4992; 2232537.1300732
897.84; 7406.8006; 2240076.933416
898.86; 7595.5842; 2247808.9103997
899.87; 7794.5579; 2255743.4339723
900.89; 8027.5281; 2263915.1111508
901.91; 8316.3917; 2272380.8390241
902.93; 8675.0195; 2281211.6344993
903.95; 9104.9652; 2290480.0962242
904.96; 9594.6132; 2300246.9984599
905.98; 10122.541; 2310551.3081068
907.00; 10664.655; 2321407.4670501
908.02; 11203.332; 2332811.9757294
909.04; 11735.728; 2344758.4403101
910.05; 12278.136; 2357257.0531456
911.07; 12864.007; 2370352.0575016
912.09; 13535.12; 2384130.225219
913.11; 14327.933; 2398715.4424491
914.13; 15259.524; 2414248.9789205
915.14; 16318.665; 2430860.6757458
916.16; 17466.738; 2448641.0609414
917.18; 18650.113; 2467626.0713589
918.20; 19821.186; 2487803.1830239
919.22; 20960.914; 2509140.4890823
920.23; 22093.469; 2531630.687555
921.25; 23284.76; 2555333.5684548
922.27; 24621.494; 2580397.1869744
923.29; 26174.735; 2607041.9373399
924.30; 27959.074; 2635503.0686797
925.32; 29902.641; 2665942.6669261
926.34; 31841.94; 2698356.3881145
927.36; 33548.669; 2732507.4850643
928.38; 34784.883; 2767916.9950859
929.39; 35371.935; 2803924.0981155
930.41; 35251.496; 2839808.6002619
931.43; 34517.006; 2874945.4229751
932.45; 33401.623; 2908946.8335422
933.47; 32222.283; 2941747.727687
934.48; 31294.183; 2973603.8559769
935.50; 30840.807; 3004998.466512
936.52; 30927.455; 3036481.2810199
937.54; 31439.689; 3068485.5279158
938.56; 32114.231; 3101176.4292538
939.57; 32613.253; 3134375.3136678
940.59; 32619.349; 3167580.4033059
941.61; 31922.378; 3200076.0064788
942.63; 30472.801; 3231096.0031597
943.65; 28387.594; 3259993.3488189
944.66; 25910.19; 3286368.8045976
945.68; 23339.849; 3310127.7635268
946.70; 20953.775; 3331457.8026093
947.72; 18945.157; 3350743.1548045
948.74; 17392.706; 3368448.1793735
949.75; 16265.681; 3385005.9407398
950.77; 15456.931; 3400740.4296697
951.79; 14829.153; 3415835.8674762
952.81; 14258.084; 3430349.9815054
953.83; 13660.505; 3444255.785679
954.84; 13002.306; 3457491.5721776
955.86; 12289.437; 3470001.6884019
956.88; 11549.598; 3481758.681239
957.90; 10813.766; 3492766.6282367
958.92; 10104.271; 3503052.3396668
959.93; 9431.887; 3512653.5936018
960.95; 8800.092; 3521611.7075416
961.97; 8212.1022; 3529971.2732474
962.99; 7676.091; 3537785.202612
964.01; 7205.7919; 3545120.3878204
965.02; 6816.3907; 3552059.1794552
966.04; 6517.9227; 3558694.1434889
967.06; 6309.4182; 3565116.8589162
968.08; 6176.5356; 3571404.3056491
969.09; 6093.8054; 3577607.5365677
970.11; 6030.6867; 3583746.515394
971.13; 5959.2188; 3589812.7430287
972.15; 5860.6197; 3595778.6010276
973.17; 5728.7878; 3601610.2597754
974.18; 5569.9302; 3607280.2083898
975.20; 5398.9165; 3612776.0723656
976.22; 5233.9254; 3618103.9825342
977.24; 5091.2443; 3623286.6495761
978.26; 4981.6967; 3628357.8018134
979.27; 4909.3774; 3633355.3361506
980.29; 4872.5171; 3638315.3483095
981.31; 4865.6772; 3643268.3977853
982.33; 4882.2689; 3648238.3368004
983.35; 4916.5625; 3653243.1852259
984.36; 4964.7675; 3658297.1043057
985.38; 5025.2013; 3663412.5424103
986.40; 5097.8705; 3668601.9545637
987.42; 5183.8724; 3673878.9130132
988.44; 5284.9193; 3679258.7328405
989.45; 5403.0825; 3684758.8377123
990.47; 5540.6767; 3690399.0075192
991.49; 5700.1231; 3696201.4868468
992.51; 5883.6762; 3702190.8153399
993.53; 6093.0223; 3708393.2490825
994.54; 6328.884; 3714835.7798913
995.56; 6590.8288; 3721544.9591688
996.58; 6877.4372; 3728545.8934484
997.60; 7186.8675; 3735861.8144038
998.62; 7517.6956; 3743514.5041664
999.63; 7869.7874; 3751525.608119
1000.65; 8244.9093; 3759918.5699656
1001.67; 8646.8316; 3768720.6713794
1002.69; 9080.795; 3777964.5288843
1003.71; 9552.3774; 3787688.4369001
1004.72; 10065.961; 3797935.1509938
1005.74; 10623.136; 3808749.0453138
1006.76; 11221.44; 3820171.9871969
1007.78; 11853.814; 3832238.6583837
1008.80; 12509.029; 3844972.3100718
1009.81; 13173.114; 3858381.9714128
1010.83; 13831.544; 3872461.8863218
1011.85; 14471.708; 3887193.460559
1012.87; 15085.043; 3902549.3836372
1013.89; 15668.304; 3918499.0406024
1014.90; 16223.674; 3935014.0404535
1015.92; 16757.811; 3952072.7687458
1016.94; 17280.214; 3969663.2808045
1017.96; 17801.461; 3987784.399764
1018.97; 18331.732; 4006445.3116608
1019.99; 18879.728; 4025664.059911
1021.01; 19451.762; 4045465.114628
1022.03; 20050.664; 4065875.8252806
1023.05; 20674.317; 4086921.3881082
1024.06; 21314.133; 4108618.2554355
1025.08; 21954.241; 4130966.7251502
1026.10; 22572.425; 4153944.4801465
1027.12; 23143.481; 4177503.5446916
1028.14; 23644.791; 4201572.9217667
1029.15; 24062.802; 4226067.8162118
1030.17; 24398.186; 4250904.1164604
1031.19; 24667.455; 4276014.52096
1032.21; 24899.775; 4301361.4175219
1033.23; 25129.518; 4326942.1825198
1034.24; 25387.037; 4352785.0910226
1035.26; 25691.317; 4378937.7428456
1036.28; 26047.853; 4405453.3329121
1037.30; 26453.269; 4432381.6191964
1038.32; 26905.311; 4459770.0643472
1039.33; 27414.172; 4487676.5084639
1040.35; 28009.816; 4516189.2924266
1041.37; 28740.821; 4545446.2075954
1042.39; 29663.253; 4575642.1189246
1043.41; 30822.094; 4607017.6807083
1044.42; 32231.261; 4639827.7135591
1045.44; 33859.752; 4674295.4804909
1046.46; 35630.152; 4710565.4379783
1047.48; 37431.919; 4748669.5162231
1048.50; 39146.95; 4788519.4221204
1049.51; 40680.604; 4829930.5217213
1050.53; 41989.282; 4872673.7993311
1051.55; 43096.489; 4916544.165784
1052.57; 44092.606; 4961428.5361881
1053.59; 45118.137; 5007356.8531649
1054.60; 46334.375; 5054523.2471887
1055.62; 47888.081; 5103271.2467648
1056.64; 49877.517; 5154044.4066291
1057.66; 52326.282; 5207310.3035513
1058.68; 55169.731; 5263470.7088415
1059.69; 58256.861; 5322773.6793105
1060.71; 61368.622; 5385244.2882941
1061.73; 64251.418; 5450649.4588303
1062.75; 66661.76; 5518508.2542115
1063.76; 68414.771; 5588151.5393081
1064.78; 69426.303; 5658824.5198231
1065.80; 69737.323; 5729814.1050589
1066.82; 69511.22; 5800573.5275856
1067.84; 69000.361; 5870812.9177174
1068.85; 68486.616; 5940529.3370552
1069.87; 68209.272; 6009963.432907
1070.89; 68299.596; 6079489.4739005
1071.91; 68741.567; 6149465.4223773
1072.93; 69372.133; 6220083.259778
1073.94; 69922.967; 6291261.8227325
1074.96; 70092.883; 6362613.3530798
1075.98; 69630.093; 6433493.7827849
1077.00; 68400.152; 6503122.1856019
1078.02; 66420.098; 6570734.9793714
1079.03; 63850.404; 6635731.9357723
1080.05; 60949.979; 6697776.3840829
1081.07; 58010.664; 6756828.7365956
1082.09; 55292.575; 6813114.1916067
1083.11; 52978.803; 6867044.3269097
1084.12; 51159.052; 6919122.0346633
1085.14; 49840.519; 6969857.5324648
1086.16; 48975.262; 7019712.2355011
1087.18; 48489.686; 7069072.6434572
1088.20; 48304.425; 7118244.4638087
1089.21; 48339.985; 7167452.4825836
1090.23; 48511.541; 7216835.1377831
1091.25; 48721.574; 7266431.5972414
1092.27; 48859.485; 7316168.4441438
1093.29; 48813.061; 7365858.0338316
1094.30; 48489.942; 7415218.7027238
1095.32; 47841.31; 7463919.0917896
1096.34; 46877.649; 7511638.5155552
1097.36; 45668.705; 7558127.286843
1098.38; 44325.661; 7603248.8967097
1099.39; 42970.519; 7646991.0303913
1100.41; 41702.76; 7689442.6404593
1101.43; 40574.428; 7730745.6574606
1102.45; 39581.586; 7771038.0034849
1103.47; 38673.985; 7810406.4511356
1104.48; 37778.334; 7848863.1650111
1105.50; 36826.196; 7886350.6437686
1106.52; 35776.833; 7922769.9159529
1107.54; 34628.115; 7958019.8429481
1108.56; 33413.57; 7992033.415568
1109.57; 32188.63; 8024800.0515639
1110.59; 31012.353; 8056369.2890046
1111.61; 29931.408; 8086838.1711706
1112.63; 28971.12; 8116329.5216641
1113.64; 28135.112; 8144969.8520667
1114.66; 27411.845; 8172873.927671
1115.68; 26784.398; 8200139.2885573
1116.70; 26239.516; 8226849.9835425
1117.72; 25773.057; 8253085.8434274
1118.73; 25390.7; 8278932.4805137
1119.75; 25104.467; 8304487.7447679
1120.77; 24926.62; 8329861.9684381
1121.79; 24862.826; 8355171.2523943
1122.81; 24906.262; 8380524.7527951
1123.82; 25033.904; 8406008.1864688
1124.84; 25205.77; 8431666.5725222
1125.86; 25367.498; 8457489.5904079
1126.88; 25456.103; 8483402.8048344
1127.90; 25408.207; 8509267.263562
1128.91; 25169.333; 8534888.5589251
1129.93; 24702.382; 8560034.5181663
1130.95; 23993.323; 8584458.6854129
1131.97; 23052.649; 8607925.2869643
1132.99; 21912.221; 8630230.9819152
1134.00; 20618.405; 8651219.6288552
1135.02; 19223.496; 8670788.3179307
1136.04; 17777.821; 8688885.3726172
1137.06; 16324.561; 8705503.0713408
1138.08; 14898.173; 8720668.7684007
1139.09; 13525.973; 8734437.6251488
1140.11; 12231.296; 8746888.5571529
1141.13; 11036.225; 8758122.9575123
1142.15; 9962.2683; 8768264.1167105
1143.17; 9028.4394; 8777454.6783839
1144.18; 8247.3769; 8785850.1521584
1145.20; 7621.1345; 8793608.1381634
1146.22; 7138.4977; 8800874.8207844
1147.24; 6775.2122; 8807771.6943914
1148.26; 6497.4755; 8814385.8440561
1149.27; 6267.8977; 8820766.2934789
1150.29; 6052.2951; 8826927.2686746
1151.31; 5825.4463; 8832857.3216636
1152.33; 5574.3496; 8838531.7690376
1153.35; 5298.3691; 8843925.2801197
1154.36; 5006.6242; 8849021.8075146
1155.38; 4713.7032; 8853820.1539688
1156.40; 4435.0693; 8858334.8631171
1157.42; 4183.35; 8862593.332926
1158.43; 3966.1978; 8866630.7511693
1159.45; 3785.8166; 8870484.5490977
1160.47; 3639.7818; 8874189.6898912
1161.49; 3522.5612; 8877775.5052195
1162.51; 3427.175; 8881264.2214833
1163.52; 3346.6223; 8884670.9385468
1164.54; 3274.9244; 8888004.6702718
1165.56; 3207.7865; 8891270.0585226
1166.58; 3142.9291; 8894469.4247088
1167.60; 3080.1148; 8897604.8486568
1168.61; 3020.8573; 8900679.9510388
1169.63; 2967.8037; 8903701.0471409
1170.65; 2923.849; 8906677.3992236
1171.67; 2891.1424; 8909620.457392
1172.69; 2870.2266; 8912542.2242558
1173.70; 2859.5605; 8915453.1334971
1174.72; 2855.5913; 8918360.0022387
1175.74; 2853.3892; 8921264.6292844
1176.76; 2847.6848; 8924163.4495313
1177.78; 2834.0286; 8927048.3683381
1178.79; 2809.7614; 8929908.5841688
1179.81; 2774.5611; 8932732.9676713
1180.83; 2730.4742; 8935512.4726279
1181.85; 2681.4989; 8938242.1227845
1182.87; 2632.9008; 8940922.3021738
1183.88; 2590.472; 8943559.2908755
1184.90; 2559.8886; 8946165.1470064
1185.92; 2546.2176; 8948757.0866155
1186.94; 2553.5184; 8951356.4581794
1187.96; 2584.4358; 8953987.3022823
1188.97; 2639.7095; 8956674.4126921
1189.99; 2717.6326; 8959440.8453969
1191.01; 2813.6145; 8962304.9835741
1192.03; 2920.0991; 8965277.5185008
1193.05; 3027.0739; 8968358.9490937
1194.06; 3123.2783; 8971538.3116711
1195.08; 3197.9926; 8974793.7301179
1196.10; 3243.0407; 8978095.0055753
1197.12; 3254.4806; 8981407.9264231
1198.14; 3233.4531; 8984699.442114
1199.15; 3185.8574; 8987942.5075056
1200.17; 3120.8716; 8991119.420124
1201.19; 3048.7126; 8994222.8779607
1202.21; 2978.3123; 8997254.671399
1203.22; 2915.6368; 9000222.6638875
1204.24; 2863.1712; 9003137.2485943
1205.26; 2820.6943; 9006008.5936497
1206.28; 2787.0153; 9008845.6549556
1207.30; 2762.0122; 9011657.2642061
1208.31; 2748.2265; 9014454.8402067
1209.33; 2751.4548; 9017255.7024171
1210.35; 2780.1578; 9020085.7830727
1211.37; 2843.9255; 9022980.7764702
1212.39; 2951.5282; 9025985.3048046
1213.40; 3109.1572; 9029150.2926828
1214.42; 3319.3066; 9032529.2035487
1215.44; 3580.4761; 9036173.9737154
1216.46; 3887.6104; 9040131.3933766
1217.48; 4233.0413; 9044440.4467138
1218.49; 4607.6957; 9049130.8820818
1219.51; 5002.4204; 9054223.1301676
1220.53; 5409.3511; 9059729.6161717
1221.55; 5823.2529; 9065657.4363218
1222.57; 6242.663; 9072012.19789
1223.58; 6670.558; 9078802.5381057
1224.60; 7114.2498; 9086044.5374452
1225.62; 7584.3762; 9093765.1051783
1226.64; 8093.1729; 9102003.6059234
1227.66; 8652.5793; 9110811.5582363
1228.67; 9272.952; 9120251.0231848
1229.69; 9963.0707; 9130392.9991962
1230.71; 10731.68; 9141317.3858624
1231.73; 11590.118; 9153115.6261609
1232.75; 12554.92; 9165895.9933468
1233.76; 13648.886; 9179789.9703591
1234.78; 14899.302; 9194956.8170033
1235.80; 16332.715; 9211582.8165244
1236.82; 17966.798; 9229872.2416319
1237.84; 19801.024; 9250028.8297641
1238.85; 21808.701; 9272229.1458197
1239.87; 23933.038; 9296591.94591
1240.89; 26089.286; 9323149.7128441
1241.91; 28173.579; 9351829.2005356
1242.93; 30077.424; 9382446.7207079
1243.94; 31705.074; 9414721.1179563
1244.96; 32989.961; 9448303.4744044
1245.98; 33906.174; 9482818.4966477
1247.00; 34471.85; 9517909.3522402
1248.02; 34743.173; 9553276.4030309
1249.03; 34800.081; 9588701.383378
1250.05; 34727.053; 9624052.0247392
1251.07; 34593.947; 9659267.1704307
1252.09; 34442.082; 9694327.7232363
1253.10; 34279.485; 9729222.7596883
1254.12; 34086.661; 9763921.5095658
1255.14; 33831.034; 9798360.0420834
1256.16; 33485.51; 9832446.8463402
1257.18; 33045.22; 9866085.4539325
1258.19; 32537.094; 9899206.8113171
1259.21; 32019.364; 9931801.1417358
1260.23; 31571.515; 9963939.5819799
1261.25; 31278.441; 9995779.6853095
1262.27; 31214.233; 10027554.427355
1263.28; 31430.582; 10059549.403166
1264.30; 31952.254; 10092075.418579
1265.32; 32778.679; 10125442.699587
1266.34; 33887.862; 10159939.08116
1267.36; 35237.952; 10195809.796059
1268.37; 36763.485; 10233233.437587
1269.39; 38366.912; 10272289.29805
1270.41; 39910.014; 10312915.970536
1271.43; 41212.242; 10354868.254871
1272.45; 42062.385; 10397685.948103
1273.46; 42246.11; 10440690.665254
1274.48; 41585.843; 10483023.259381
1275.50; 39983.585; 10523724.823051
1276.52; 37453.94; 10561851.317452
1277.54; 34135.675; 10596599.961726
1278.55; 30275.491; 10627419.105585
1279.57; 26185.911; 10654075.233036
1280.59; 22187.328; 10676660.975737
1281.61; 18549.463; 10695543.528703
1282.63; 15447.749; 10711268.67074
1283.64; 12945.421; 10724446.550644
1284.66; 11003.938; 10735648.084409
1285.68; 9515.7762; 10745334.733994
1286.70; 8347.5158; 10753832.14491
1287.72; 7379.4634; 10761344.120257
1288.73; 6531.0483; 10767992.445577
1289.75; 5767.3883; 10773863.397957
1290.77; 5089.2934; 10779044.078974
1291.79; 4514.0267; 10783639.163411
1292.81; 4055.8316; 10787767.824926
1293.82; 3713.4254; 10791547.931772
1294.84; 3467.5697; 10795077.768129
1295.86; 3287.3362; 10798424.134514
1296.88; 3140.5931; 10801621.122803
1297.89; 3003.4803; 10804678.536108
1298.91; 2865.1159; 10807595.100463
1299.93; 2726.4951; 10810370.554789
1300.95; 2595.1604; 10813012.316062
1301.97; 2478.6944; 10815535.519998
1302.98; 2379.989; 10817958.246076
1304.00; 2295.918; 10820295.391497
1305.02; 2219.268; 10822554.510554
1306.04; 2142.4087; 10824735.390147
1307.06; 2060.7285; 10826833.122873
1308.07; 1974.3483; 10828842.924237
1309.09; 1887.6568; 10830764.477366
1310.11; 1807.2336; 10832604.163165
1311.13; 1739.2837; 10834374.678869
1312.15; 1687.6604; 10836092.644355
1313.16; 1653.0568; 10837775.384868
1314.18; 1633.3253; 10839438.039521
1315.20; 1624.4631; 10841091.672823
1316.22; 1621.7131; 10842742.506783
1317.24; 1620.4269; 10844392.031396
1318.25; 1616.6274; 10846037.688295
1319.27; 1607.4041; 10847673.956289
1320.29; 1591.2752; 10849293.805742
1321.31; 1568.5114; 10850890.482634
1322.33; 1541.2594; 10852459.418165
1323.34; 1513.2609; 10853999.852511
1324.36; 1489.0848; 10855515.676557
1325.38; 1473.0098; 10857015.136949
1326.40; 1467.8971; 10858509.392809
1327.42; 1474.4426; 10860010.311748
1328.43; 1491.0744; 10861528.161165
1329.45; 1514.5031; 10863069.859918
1330.47; 1540.6779; 10864638.20349
1331.49; 1565.7665; 10866232.086214
1332.51; 1586.8189; 10867847.399349
1333.52; 1601.9657; 10869478.131335
1334.54; 1610.2321; 10871117.278087
1335.56; 1611.2007; 10872757.410833
1336.58; 1604.7742; 10874391.001749
1337.60; 1591.1657; 10876010.739745
1338.61; 1571.0746; 10877610.025867
1339.63; 1545.8808; 10879183.665835
1340.65; 1517.6709; 10880728.589344
1341.67; 1489.0083; 10882244.335501
1342.69; 1462.506; 10883733.103547
1343.70; 1440.3754; 10885199.343509
1344.72; 1424.138; 10886649.05458
1345.74; 1414.6075; 10888089.064021
1346.76; 1412.0993; 10889526.520161
1347.77; 1416.7127; 10890968.672508
1348.79; 1428.4939; 10892422.81768
1349.81; 1447.3597; 10893896.167368
1350.83; 1472.7972; 10895395.411388
1351.85; 1503.4919; 10896925.901282
1352.86; 1537.0923; 10898490.594948
1353.88; 1570.2839; 10900089.076197
1354.90; 1599.2169; 10901717.010039
1355.92; 1620.1862; 10903366.28964
1356.94; 1630.3517; 10905025.917267
1357.95; 1628.2727; 10906683.428625
1358.97; 1614.0976; 10908326.510295
1359.99; 1589.3789; 10909944.429395
1361.01; 1556.6105; 10911528.991674
1362.03; 1518.6554; 10913074.917288
1363.04; 1478.2369; 10914579.698676
1364.06; 1437.6062; 10916043.119756
1365.08; 1398.4125; 10917466.643352
1366.10; 1361.7318; 10918852.827552
1367.12; 1328.1745; 10920204.851877
1368.13; 1298.0048; 10921526.164711
1369.15; 1271.2399; 10922820.232102
1370.17; 1247.7388; 10924090.37637
1371.19; 1227.3057; 10925339.720645
1372.21; 1209.8282; 10926571.273496
1373.22; 1195.4348; 10927788.174504
1374.24; 1184.6265; 10928994.073169
1375.26; 1178.3143; 10930193.54629
1376.28; 1177.7087; 10931392.402903
1377.30; 1184.0474; 10932597.712031
1378.31; 1198.2081; 10933817.436143
1379.33; 1220.3105; 10935059.659538
1380.35; 1249.4434; 10936331.539042
1381.37; 1283.6397; 10937638.228828
1382.39; 1320.1574; 10938982.092127
1383.40; 1356.0315; 10940362.473687
1384.42; 1388.7511; 10941776.162377
1385.44; 1416.8519; 10943218.456484
1386.46; 1440.2043; 10944684.522295
1387.48; 1459.8547; 10946170.591383
1388.49; 1477.4198; 10947674.540939
1389.51; 1494.1965; 10949195.568543
1390.53; 1510.2832; 10950732.971657
1391.55; 1524.0427; 10952284.381316
1392.56; 1532.1649; 10953844.059059
1393.58; 1530.4; 10955401.940262
1394.60; 1514.805; 10956943.946364
1395.62; 1483.1459; 10958453.724851
1396.64; 1436.008; 10959915.519019
1397.65; 1377.2233; 10961317.472917
1398.67; 1313.4263; 10962654.484204
1399.69; 1252.8285; 10963929.809516
1400.71; 1203.5648; 10965154.986575
1401.73; 1172.1176; 10966348.151755
1402.74; 1162.3043; 10967531.327397
1403.76; 1175.1269; 10968727.555842
1404.78; 1209.4804; 10969958.754715
1405.80; 1263.4118; 10971244.853441
1406.82; 1335.4153; 10972604.24855
1407.83; 1425.227; 10974055.068157
1408.85; 1533.754; 10975616.363564
1409.87; 1662.0848; 10977308.29414
1410.89; 1809.8844; 10979150.678322
1411.91; 1973.7405; 10981159.86098
1412.92; 2146.1082; 10983344.506509
1413.94; 2315.3569; 10985701.439882
1414.96; 2467.094; 10988212.83509
1415.98; 2586.5279; 10990845.808929
1417.00; 2661.2774; 10993554.874519
1418.01; 2683.8575; 10996286.925689
1419.03; 2653.1416; 10998987.709307
1420.05; 2574.3926; 11001608.329863
1421.07; 2457.8874; 11004110.353186
1422.09; 2316.5715; 11006468.522961
1423.10; 2163.4491; 11008670.82083
1424.12; 2009.442; 11010716.346059
1425.14; 1862.2331; 11012612.019035
1426.16; 1726.2467; 11014369.263686
1427.18; 1603.5186; 11016001.576404
1428.19; 1494.9447; 11017523.365564
1429.21; 1401.3327; 11018949.861801
1430.23; 1323.8462; 11020297.480091
1431.25; 1263.737; 11021583.909811
1432.27; 1221.5926; 11022827.438344
1433.28; 1196.5401; 11024045.464557
1434.30; 1185.8748; 11025252.633939
1435.32; 1185.4052; 11026459.325262
1436.34; 1190.5087; 11027671.211746
1437.36; 1197.5855; 11028890.302116
1438.37; 1205.4076; 11030117.355081
1439.39; 1215.8589; 11031355.046963
1440.41; 1233.7497; 11032610.950906
1441.43; 1265.7032; 11033899.382144
1442.44; 1318.4306; 11035241.487643
1443.46; 1396.932; 11036663.504117
1444.48; 1503.1954; 11038193.692138
1445.50; 1635.8119; 11039858.87803
1446.52; 1790.6227; 11041681.65468
1447.53; 1962.1732; 11043679.062304
1448.55; 2145.4718; 11045863.059981
1449.57; 2337.4368; 11048242.469757
1450.59; 2537.4959; 11050825.531056
1451.61; 2747.067; 11053621.926753
1452.62; 2968.0157; 11056643.238666
1453.64; 3200.5404; 11059901.250685
1454.66; 3441.1743; 11063404.217666
1455.68; 3681.6207; 11067151.948666
1456.70; 3908.9406; 11071131.081541
1457.71; 4107.2328; 11075312.067285
1458.73; 4260.4897; 11079649.061927
1459.75; 4355.9272; 11084083.207803
1460.77; 4386.8886; 11088548.871069
1461.79; 4354.4948; 11092981.558861
1462.80; 4267.5383; 11097325.728669
1463.82; 4140.6091; 11101540.69009
1464.84; 3990.9435; 11105603.29838
1465.86; 3834.8423; 11109507.00236
1466.88; 3684.6078; 11113257.774151
1467.89; 3546.7609; 11116868.223743
1468.91; 3421.8936; 11120351.563739
1469.93; 3306.0238; 11123716.953321
1470.95; 3192.9037; 11126967.191513
1471.97; 3076.5159; 11130098.951932
1472.98; 2953.0321; 11133105.011187
1474.00; 2821.7608; 11135977.441933
1475.02; 2684.9799; 11138710.635638
1476.04; 2546.9028; 11141303.272821
1477.06; 2412.2515; 11143758.840747
1478.07; 2284.9529; 11146084.824217
1479.09; 2167.3466; 11148291.089491
1480.11; 2060.0554; 11150388.137018
1481.13; 1962.4256; 11152385.801618
1482.15; 1873.2609; 11154292.700392
1483.16; 1791.5212; 11156116.391638
1484.18; 1716.7211; 11157863.939614
1485.20; 1648.9212; 11159542.470273
1486.22; 1588.3862; 11161159.378836
1487.23; 1535.1253; 11162722.070156
1488.25; 1488.5843; 11164237.384727
1489.27; 1447.6944; 11165711.075174
1490.29; 1411.3396; 11167147.757955
1491.31; 1379.113; 11168551.635462
1492.32; 1352.086; 11169928.000709
1493.34; 1333.2626; 11171285.204493
1494.36; 1327.48; 11172636.521887
1495.38; 1340.7243; 11174001.32142
1496.40; 1379.0774; 11175405.162683
1497.41; 1447.7059; 11176878.864839
1498.43; 1550.3332; 11178457.037183
1499.45; 1689.4597; 11180176.834279
1500.47; 1867.2593; 11182077.623629
1501.49; 2086.6973; 11184201.791436
1502.50; 2352.1652; 11186596.194108
1503.52; 2668.9518; 11189313.071873
1504.54; 3041.2297; 11192408.912479
1505.56; 3468.835; 11195940.036844
1506.58; 3943.7558; 11199954.610033
1507.59; 4447.6483; 11204482.124038
1508.61; 4951.6572; 11209522.69742
1509.63; 5419.2586; 11215039.268867
1510.65; 5811.9104; 11220955.542876
1511.67; 6096.292; 11227161.305043
1512.68; 6251.214; 11233524.771144
1513.70; 6272.1793; 11239909.57901
1514.72; 6172.1674; 11246192.579096
1515.74; 5978.333; 11252278.264083
1516.76; 5725.5752; 11258106.652601
1517.77; 5448.9036; 11263653.401362
1518.79; 5176.8373; 11268923.198321
1519.81; 4927.6212; 11273939.304075
1520.83; 4708.9894; 11278732.852124
1521.85; 4520.9526; 11283334.98679
1522.86; 4360.1014; 11287773.381863
1523.88; 4223.553; 11292072.776564
1524.90; 4111.0328; 11296257.630526
1525.92; 4024.4994; 11300354.397271
1526.94; 3965.8041; 11304391.414684
1527.95; 3933.6867; 11308395.737998
1528.97; 3921.6488; 11312387.807255
1529.99; 3917.8317; 11316375.990897
1531.01; 3907.1684; 11320353.319777
1532.03; 3875.126; 11324298.030805
1533.04; 3811.698; 11328178.174873
1534.06; 3714.1899; 11331959.059961
1535.08; 3587.7864; 11335611.271685
1536.10; 3443.7044; 11339116.814115
1537.11; 3295.5925; 11342471.585117
1538.13; 3155.4124; 11345683.658745
1539.15; 3030.1423; 11348768.212891
1540.17; 2920.2815; 11351740.93343
1541.19; 2820.4612; 11354612.041255
1542.20; 2721.7729; 11357382.688621
1543.22; 2614.9241; 11360044.568504
1544.24; 2493.192; 11362582.530354
1545.26; 2354.3438; 11364979.150741
1546.28; 2201.1214; 11367219.797389
1547.29; 2040.3633; 11369296.799176
1548.31; 1881.2002; 11371211.779834
1549.33; 1732.9288; 11372975.826525
1550.35; 1603.1271; 11374607.740752
1551.37; 1496.4053; 11376131.016802
1552.38; 1413.9531; 11377570.359994
1553.40; 1353.8459; 11378948.516714
1554.42; 1311.9289; 11380284.003764
1555.44; 1283.0213; 11381590.064106
1556.46; 1262.1656; 11382874.894262
1557.47; 1245.6627; 11384142.925092
1558.49; 1231.6846; 11385396.72686
1559.51; 1220.346; 11386638.986417
1560.53; 1213.2283; 11387874.000474
1561.55; 1212.4856; 11389108.25849
1562.56; 1219.7714; 11390349.933136
1563.58; 1235.2846; 11391607.399514
1564.60; 1257.2088; 11392887.183794
1565.62; 1281.715; 11394191.914382
1566.64; 1303.5383; 11395518.860072
1567.65; 1316.9771; 11396859.485902
1568.67; 1317.0518; 11398200.187834
1569.69; 1300.5247; 11399524.065823
1570.71; 1266.5414; 11400813.350304
1571.73; 1216.7726; 11402051.972271
1572.74; 1155.0668; 11403227.780479
1573.76; 1086.7401; 11404334.03499
1574.78; 1017.6812; 11405369.990486
1575.80; 953.45638; 11406340.567938
1576.82; 898.55527; 11407255.258429
1577.83; 855.86588; 11408126.492961
1578.85; 826.42044; 11408967.753305
1579.87; 809.41852; 11409791.706433
1580.89; 802.51216; 11410608.629182
1581.90; 802.3141; 11411425.350317
1582.92; 805.05941; 11412244.866057
1583.94; 807.31464; 11413066.677521
1584.96; 806.60164; 11413887.763187
1585.98; 801.80201; 11414703.963038
1586.99; 793.24523; 11415511.45245
1588.01; 782.45656; 11416307.959463
1589.03; 771.63092; 11417093.44644
1590.05; 762.97672; 11417870.123813
1591.07; 758.11093; 11418641.84803
1592.08; 757.66699; 11419413.120331
1593.10; 761.2058; 11420187.994986
1594.12; 767.42201; 11420969.197472
1595.14; 774.54735; 11421757.653248
1596.16; 780.8034; 11422552.477421
1597.17; 784.76246; 11423351.331737
1598.19; 785.53122; 11424150.968619
1599.21; 782.75187; 11424947.77625
1600.23; 776.48392; 11425738.203375
1601.25; 767.06131; 11426519.038689
1602.26; 755.00287; 11427287.599036
1603.28; 741.00197; 11428041.907062
1604.30; 725.96173; 11428780.904774
1605.32; 711.00554; 11429504.677733
1606.34; 697.39685; 11430214.59763
1607.35; 686.34702; 11430913.269282
1608.37; 678.75289; 11431604.210432
1609.39; 674.95561; 11432291.286117
1610.41; 674.62352; 11432978.023744
1611.43; 676.82419; 11433667.001564
1612.44; 680.27979; 11434359.497037
1613.46; 683.7245; 11435055.499075
1614.48; 686.23852; 11435754.060271
1615.50; 687.44016; 11436453.844692
1616.52; 687.47535; 11437153.664933
1617.53; 686.82711; 11437852.825293
1618.55; 686.04067; 11438551.185093
1619.57; 685.48896; 11439248.983275
1620.59; 685.27614; 11439946.564812
1621.61; 685.30575; 11440644.176495
1622.62; 685.45788; 11441341.943037
1623.64; 685.76506; 11442040.022278
1624.66; 686.47624; 11442738.82547
1625.68; 687.95271; 11443439.131647
1626.70; 690.42614; 11444141.955665
1627.71; 693.72601; 11444848.138812
1628.73; 697.11546; 11445557.772263
1629.75; 699.34234; 11446269.672593
1630.77; 698.92812; 11446981.151255
1631.78; 694.61391; 11447688.238244
1632.80; 685.80732; 11448386.360499
1633.82; 672.85673; 11449071.299617
1634.84; 657.03429; 11449740.132171
1635.86; 640.21216; 11450391.840526
1636.87; 624.33096; 11451027.382507
1637.89; 610.83779; 11451649.189018
1638.91; 600.28494; 11452260.253184
1639.93; 592.22404; 11452863.111697
1640.95; 585.42635; 11453459.050461
1641.96; 578.34832; 11454047.784093
1642.98; 569.6817; 11454627.695479
1644.00; 558.80682; 11455196.536705
1645.02; 546.00806; 11455752.34935
1646.04; 532.39462; 11456294.304099
1647.05; 519.56489; 11456823.198737
1648.07; 509.12807; 11457341.469144
1649.09; 502.23001; 11457852.717627
1650.11; 499.21743; 11458360.899432
1651.13; 499.52493; 11458869.394252
1652.14; 501.80219; 11459380.207227
1653.16; 504.23488; 11459893.496578
1654.18; 504.96792; 11460407.532131
1655.20; 502.5224; 11460919.078244
1656.22; 496.10753; 11461424.094305
1657.23; 485.76104; 11461918.578084
1658.25; 472.29597; 11462399.354997
1659.27; 457.07895; 11462864.641645
1660.29; 441.7033; 11463314.276542
1661.31; 427.6416; 11463749.597235
1662.32; 415.96221; 11464173.028814
1663.34; 407.17141; 11464587.511737
1664.36; 401.20498; 11464995.921091
1665.38; 397.55037; 11465400.610209
1666.40; 395.44623; 11465803.157402
1667.41; 394.09082; 11466204.324854
1668.43; 392.79869; 11466604.176971
1669.45; 391.07234; 11467002.271733
1670.47; 388.59188; 11467397.841498
1671.49; 385.15651; 11467789.914204
1672.50; 380.62595; 11468177.374996
1673.52; 374.90309; 11468559.010168
1674.54; 367.97407; 11468933.59189
1675.56; 359.99021; 11469300.046389
1676.57; 351.35093; 11469657.706476
1677.59; 342.73792; 11470006.598889
1678.61; 335.06347; 11470347.679038
1679.63; 329.32474; 11470682.917411
1680.65; 326.39074; 11471015.169098
1681.66; 326.7768; 11471347.81378
1682.68; 330.47244; 11471684.220462
1683.70; 336.87792; 11472027.147652
1684.72; 344.87645; 11472378.216997
1685.74; 353.03123; 11472737.587559
1686.75; 359.86221; 11473103.911763
1687.77; 364.13569; 11473474.586188
1688.79; 365.09792; 11473846.240115
1689.81; 362.60018; 11474215.351451
1690.83; 357.0926; 11474578.856312
1691.84; 349.49703; 11474934.629204
1692.86; 340.99699; 11475281.749424
1693.88; 332.7978; 11475620.523226
1694.90; 325.90963; 11475952.285162
1695.92; 320.99346; 11476279.042651
1696.93; 318.28989; 11476603.048029
1697.95; 317.62982; 11476926.381481
1698.97; 318.51084; 11477250.611775
1699.99; 320.21553; 11477576.577366
1701.01; 321.94735; 11477904.305877
1702.02; 322.96416; 11478233.069453
1703.04; 322.69414; 11478561.55816
1704.06; 320.82272; 11478888.141847
1705.08; 317.34077; 11479211.181059
1706.10; 312.54611; 11479529.339517
1707.11; 306.99443; 11479841.846595
1708.13; 301.4027; 11480148.66154
1709.15; 296.51871; 11480450.504795
1710.17; 292.97963; 11480748.745417
1711.19; 291.18917; 11481045.163424
1712.20; 291.24124; 11481341.634434
1713.22; 292.90925; 11481639.803407
1714.24; 295.70485; 11481940.818186
1715.26; 298.99316; 11482245.180317
1716.28; 302.13745; 11482552.743198
1717.29; 304.63961; 11482862.853171
1718.31; 306.24375; 11483174.596097
1719.33; 306.97964; 11483487.088121
1720.35; 307.13608; 11483799.739397
1721.37; 307.1702; 11484112.42541
1722.38; 307.57229; 11484425.520724
1723.40; 308.71666; 11484739.780966
1724.42; 310.73438; 11485056.095157
1725.44; 313.44155; 11485375.165129
1726.45; 316.34771; 11485697.193452
1727.47; 318.75103; 11486021.668244
1728.49; 319.90431; 11486347.31703
1729.51; 319.21351; 11486672.262606
1730.53; 316.4148; 11486994.359217
1731.54; 311.67585; 11487311.631785
1732.56; 305.58333; 11487622.702428
1733.58; 299.01081; 11487927.082531
1734.60; 292.89941; 11488225.241486
1735.62; 288.01455; 11488518.427873
1736.63; 284.75468; 11488808.295848
1737.65; 283.0734; 11489096.452354
1738.67; 282.54013; 11489384.066014
1739.69; 282.51592; 11489671.655032
1740.71; 282.38019; 11489959.105883
1741.72; 281.72557; 11490245.89036
1742.74; 280.45104; 11490531.377414
1743.76; 278.72344; 11490815.105852
1744.78; 276.83005; 11491096.906895
1745.80; 274.98842; 11491376.833238
1746.81; 273.19779; 11491654.9368
1747.83; 271.19929; 11491931.005973
1748.85; 268.56776; 11492204.396365
1749.87; 264.90262; 11492474.055799
1750.89; 260.0416; 11492738.766925
1751.90; 254.20764; 11492997.539335
1752.92; 248.02115; 11493250.014168
1753.94; 242.35995; 11493496.726142
1754.96; 238.10748; 11493739.109278
1755.98; 235.87385; 11493979.218675
1756.99; 235.78709; 11494219.239757
1758.01; 237.42851; 11494460.931732
1759.03; 239.93603; 11494705.176253
1760.05; 242.2416; 11494951.767746
1761.07; 243.36443; 11495199.502235
1762.08; 242.66641; 11495446.526174
1763.10; 239.9933; 11495690.829
1764.12; 235.66676; 11495930.727596
1765.14; 230.34211; 11496165.205925
1766.16; 224.78678; 11496394.029167
1767.17; 219.65304; 11496617.626482
1768.19; 215.31183; 11496836.804637
1769.21; 211.78838; 11497052.396072
1770.23; 208.80574; 11497264.951302
1771.24; 205.91144; 11497474.560257
1772.26; 202.64341; 11497680.842505
1773.28; 198.687; 11497883.097295
1774.30; 193.98326; 11498080.563881
1775.32; 188.76491; 11498272.718418
1776.33; 183.51471; 11498459.528476
1777.35; 178.85822; 11498641.598427
1778.37; 175.41667; 11498820.165027
1779.39; 173.65413; 11498996.937438
1780.41; 173.75579; 11499173.813331
1781.42; 175.56905; 11499352.535049
1782.44; 178.62604; 11499534.368645
1783.46; 182.24612; 11499719.887336
1784.48; 185.69501; 11499908.916838
1785.50; 188.3583; 11500100.657462
1786.51; 189.88047; 11500293.947588
1787.53; 190.22721; 11500487.590679
1788.55; 189.65173; 11500680.647955
1789.57; 188.57549; 11500872.609664
1790.59; 187.42258; 11501063.397765
1791.60; 186.46331; 11501253.20937
1792.62; 185.71993; 11501442.264241
1793.64; 184.96631; 11501630.55196
1794.66; 183.82036; 11501817.673159
1795.68; 181.89515; 11502002.834576
1796.69; 178.95418; 11502185.00221
1797.71; 175.01559; 11502363.160527
1798.73; 170.36917; 11502536.58899
1799.75; 165.50193; 11502705.062815
1800.77; 160.96034; 11502868.913493
1801.78; 157.19828; 11503028.93456
1802.80; 154.46219; 11503186.1704
1803.82; 152.7483; 11503341.661573
1804.84; 151.83938; 11503496.227506
1805.86; 151.39978; 11503650.345946
1806.87; 151.08967; 11503804.148706
1807.89; 150.65726; 11503957.511291
1808.91; 149.98131; 11504110.185797
1809.93; 149.05872; 11504261.921139
1810.95; 147.95353; 11504412.531445
1811.96; 146.73672; 11504561.903097
1812.98; 145.44496; 11504709.959793
1814.00; 144.07426; 11504856.621177
1815.02; 142.60633; 11505001.788262
1816.04; 141.04969; 11505145.370756
1817.05; 139.47119; 11505287.346413
1818.07; 137.99809; 11505427.822511
1819.09; 136.78458; 11505567.063315
1820.11; 135.95337; 11505705.457974
1821.12; 135.53466; 11505843.426412
1822.14; 135.42864; 11505981.286923
1823.16; 135.40946; 11506119.127913
1824.18; 135.17457; 11506256.72979
1825.20; 134.4262; 11506393.569857
1826.21; 132.96043; 11506528.917839
1827.23; 130.73591; 11506662.00135
1828.25; 127.9009; 11506792.198948
1829.27; 124.77083; 11506919.210273
1830.29; 121.76321; 11507043.159962
1831.30; 119.30867; 11507164.611038
1832.32; 117.76161; 11507284.487279
1833.34; 117.33091; 11507403.925081
1834.36; 118.04334; 11507524.088106
1835.38; 119.74238; 11507645.980685
1836.39; 122.11698; 11507770.290501
1837.41; 124.75071; 11507897.281346
1838.43; 127.18167; 11508026.746798
1839.45; 128.96514; 11508158.02775
1840.47; 129.73361; 11508290.09097
1841.48; 129.24891; 11508421.660781
1842.50; 127.44067; 11508551.389889
1843.52; 124.42396; 11508678.048112
1844.54; 120.4892; 11508800.700914
1845.56; 116.06139; 11508918.846399
1846.57; 111.63183; 11509032.482781
1847.59; 107.67348; 11509142.089732
1848.61; 104.5574; 11509248.524652
1849.63; 102.48944; 11509352.854481
1850.65; 101.48243; 11509456.159216
1851.66; 101.37012; 11509559.349619
1852.68; 101.85781; 11509663.03647
1853.70; 102.59482; 11509767.473569
1854.72; 103.24897; 11509872.576565
1855.74; 103.56482; 11509978.001083
1856.75; 103.3946; 11510083.252329
1857.77; 102.70046; 11510187.796964
1858.79; 101.5353; 11510291.155522
1859.81; 100.01428; 11510392.965748
1860.83; 98.287748; 11510493.018434
1861.84; 96.521747; 11510591.273408
1862.86; 94.885545; 11510687.862798
1863.88; 93.540896; 11510783.083393
1864.90; 92.627174; 11510877.373859
1865.91; 92.239798; 11510971.269993
1866.93; 92.405175; 11511065.334474
1867.95; 93.0605; 11511160.066047
1868.97; 94.048512; 11511255.803374
1869.99; 95.134428; 11511352.646117
1871.00; 96.045523; 11511450.416315
1872.02; 96.525719; 11511548.675332
1873.04; 96.391395; 11511646.797612
1874.06; 95.572853; 11511744.086652
1875.08; 94.129487; 11511839.906408
1876.09; 92.234293; 11511933.796938
1877.11; 90.132379; 11512025.547811
1878.13; 88.08534; 11512115.214886
1879.15; 86.316451; 11512203.081308
1880.17; 84.970059; 11512289.577161
1881.18; 84.0932; 11512375.180411
1882.20; 83.640741; 11512460.323076
1883.22; 83.499368; 11512545.32183
1884.24; 83.522302; 11512630.343928
1885.26; 83.56589; 11512715.410398
1886.27; 83.520705; 11512800.430872
1887.29; 83.332158; 11512885.259412
1888.31; 83.008089; 11512969.758065
1889.33; 82.612877; 11513053.854409
1890.35; 82.249522; 11513137.580872
1891.36; 82.03327; 11513221.087201
1892.38; 82.062511; 11513304.623296
1893.40; 82.394291; 11513388.497129
1894.42; 83.031706; 11513473.019823
1895.44; 83.927896; 11513558.4548
1896.45; 85.006341; 11513644.987587
1897.47; 86.191093; 11513732.7264
1898.49; 87.435788; 11513821.73226
1899.51; 88.739224; 11513912.064961
1900.53; 90.13921; 11514003.822787
1901.54; 91.684716; 11514097.153872
1902.56; 93.396056; 11514192.227027
1903.58; 95.229998; 11514289.167055
1904.60; 97.06755; 11514387.977632
1905.62; 98.735341; 11514488.485949
1906.63; 100.05864; 11514590.34133
1907.65; 100.92984; 11514693.08355
1908.67; 101.36646; 11514796.270233
1909.69; 101.53263; 11514899.626069
1910.71; 101.70818; 11515003.160607
1911.72; 102.20823; 11515107.204174
1912.74; 103.27576; 11515212.334445
1913.76; 104.98309; 11515319.202705
1914.78; 107.17906; 11515428.306361
1915.79; 109.50575; 11515539.778492
1916.81; 111.48558; 11515653.266005
1917.83; 112.65436; 11515767.943287
1918.85; 112.69873; 11515882.665735
1919.87; 111.55288; 11515996.221757
1920.88; 109.42247; 11516107.609105
1921.90; 106.72799; 11516216.253596
1922.92; 103.98723; 11516322.108111
1923.94; 101.67607; 11516425.609965
1924.96; 100.11282; 11516527.520497
1925.97; 99.400419; 11516628.705834
1926.99; 99.438882; 11516729.930325
1928.01; 99.99546; 11516831.721388
1929.03; 100.80157; 11516934.333036
1930.05; 101.64032; 11517037.798496
1931.06; 102.39695; 11517142.034175
1932.08; 103.06253; 11517246.947381
1933.10; 103.70041; 11517352.509925
1934.12; 104.39787; 11517458.78245
1935.14; 105.22664; 11517565.898625
1936.15; 106.22731; 11517674.033443
1937.17; 107.4178; 11517783.380123
1938.19; 108.81306; 11517894.147119
1939.21; 110.43809; 11518006.568332
1940.23; 112.32064; 11518120.905892
1941.24; 114.46202; 11518237.423294
1942.26; 116.79828; 11518356.318901
1943.28; 119.17174; 11518477.630589
1944.30; 121.33264; 11518601.14198
1945.32; 122.9793; 11518726.329605
1946.33; 123.82988; 11518852.383078
1947.35; 123.7041; 11518978.308512
1948.37; 122.58704; 11519103.096826
1949.39; 120.65109; 11519225.914432
1950.41; 118.22619; 11519346.263589
1951.42; 115.726; 11519464.06766
1952.44; 113.55293; 11519579.659639
1953.46; 112.01087; 11519693.681872
1954.48; 111.25043; 11519806.930007
1955.50; 111.25854; 11519920.186397
1956.51; 111.88879; 11520034.084352
1957.53; 112.91629; 11520149.028258
1958.55; 114.09631; 11520265.173382
1959.57; 115.20964; 11520382.451821
1960.58; 116.08694; 11520500.623316
1961.60; 116.61494; 11520619.332291
1962.62; 116.73322; 11520738.161675
1963.64; 116.43101; 11520856.683414
1964.66; 115.74792; 11520974.509797
1965.67; 114.77608; 11521091.346895
1966.69; 113.65607; 11521207.043872
1967.71; 112.55983; 11521321.624923
1968.73; 111.65937; 11521435.289339
1969.75; 111.08802; 11521548.372153
1970.76; 110.90749; 11521661.271194
1971.78; 111.09452; 11521774.36062
1972.80; 111.55562; 11521887.919429
1973.82; 112.16749; 11522002.101095
1974.84; 112.82982; 11522116.956982
1975.85; 113.51047; 11522232.505741
1976.87; 114.26389; 11522348.821446
1977.89; 115.2123; 11522466.102591
1978.91; 116.49287; 11522584.687311
1979.93; 118.1874; 11522704.996985
1980.94; 120.25887; 11522827.415324
1981.96; 122.51897; 11522952.134352
1982.98; 124.6413; 11523079.013819
1984.00; 126.22058; 11523207.500926
1985.02; 126.86356; 11523336.642553
1986.03; 126.28681; 11523465.197077
1987.05; 124.39453; 11523591.825338
1988.07; 121.31492; 11523715.318694
1989.09; 117.3859; 11523834.812475
1990.11; 113.09422; 11523949.937515
1991.12; 108.98415; 11524060.878673
1992.14; 105.5578; 11524168.331961
1993.16; 103.18973; 11524273.37465
1994.18; 102.07226; 11524377.279804
1995.20; 102.19966; 11524481.314646
1996.21; 103.38917; 11524586.560358
1997.23; 105.3296; 11524693.781349
1998.25; 107.64384; 11524803.358134
1999.27; 109.95142; 11524915.283938
2000.29; 111.92047; 11525029.214147
2001.30; 113.30309; 11525144.551806
2002.32; 113.95353; 11525260.551581
2003.34; 113.83187; 11525376.427508
2004.36; 112.99764; 11525491.454225
2005.37; 111.59681; 11525605.054961
2006.39; 109.84365; 11525716.87106
2007.41; 107.99697; 11525826.807311
2008.43; 106.3297; 11525935.046357
2009.45; 105.09243; 11526042.025912
2010.46; 104.47418; 11526148.376123
2011.48; 104.5676; 11526254.821423
2012.50; 105.34703; 11526362.060157
2013.52; 106.66755; 11526470.643122
2014.54; 108.28821; 11526580.875851
2015.55; 109.91695; 11526692.766558
2016.57; 111.26769; 11526806.032269
2017.59; 112.11639; 11526920.161915
2018.61; 112.34207; 11527034.521295
2019.63; 111.94358; 11527148.475027
2020.64; 111.02933; 11527261.49809
2021.66; 109.78522; 11527373.254707
2022.68; 108.4314; 11527483.633194
2023.70; 107.18015; 11527592.737958
2024.72; 106.20489; 11527700.849955
2025.73; 105.62504; 11527808.371688
2026.75; 105.50529; 11527915.771519
2027.77; 105.86388; 11528023.536378
2028.79; 106.68272; 11528132.134779
2029.81; 107.91411; 11528241.986683
2030.82; 109.48241; 11528353.435048
2031.84; 111.28289; 11528466.716232
2032.86; 113.18263; 11528581.931268
2033.88; 115.02818; 11528699.024987
2034.90; 116.66283; 11528817.782713
2035.91; 117.95234; 11528937.853108
2036.93; 118.81403; 11529058.800665
2037.95; 119.24155; 11529180.183414
2038.97; 119.31691; 11529301.642877
2039.99; 119.20349; 11529422.986884
2041.00; 119.11803; 11529544.243896
2042.02; 119.28561; 11529665.671498
2043.04; 119.88739; 11529787.711689
2044.06; 121.01476; 11529910.899494
2045.08; 122.64397; 11530035.745764
2046.09; 124.64121; 11530162.625135
2047.11; 126.79995; 11530291.702012
2048.13; 128.90218; 11530422.918872
2049.15; 130.7861; 11530556.053476
2050.17; 132.39838; 11530690.829312
2051.18; 133.81192; 11530827.044074
2052.20; 135.19962; 11530964.671454
2053.22; 136.76937; 11531103.896776
2054.24; 138.6798; 11531245.06683
2055.25; 140.96487; 11531388.562984
2056.27; 143.49493; 11531534.634632
2057.29; 145.99083; 11531683.246995
2058.31; 148.09001; 11531833.996232
2059.33; 149.44527; 11531986.125065
2060.34; 149.82457; 11532138.640013
2061.36; 149.17943; 11532290.498231
2062.38; 147.66007; 11532440.809815
2063.40; 145.57453; 11532588.998409
2064.42; 143.30806; 11532734.879826
2065.43; 141.23235; 11532878.648261
2066.45; 139.63508; 11533020.790743
2067.47; 138.6895; 11533161.970672
2068.49; 138.46629; 11533302.923382
2069.51; 138.97234; 11533444.391225
2070.52; 140.19181; 11533587.100441
2071.54; 142.10672; 11533731.758953
2072.56; 144.68671; 11533879.043782
2073.58; 147.85479; 11534029.553577
2074.60; 151.44958; 11534183.722712
2075.61; 155.20885; 11534341.718621
2076.63; 158.79158; 11534503.361597
2077.65; 161.83961; 11534668.107334
2078.67; 164.06174; 11534835.115108
2079.69; 165.31158; 11535003.395168
2080.70; 165.6297; 11535171.999059
2081.72; 165.23264; 11535340.198754
2082.74; 164.45021; 11535507.601973
2083.76; 163.6315; 11535674.171783
2084.78; 163.05083; 11535840.150491
2085.79; 162.84401; 11536005.918664
2086.81; 162.99294; 11536171.838439
2087.83; 163.35823; 11536338.130071
2088.85; 163.74313; 11536504.813514
2089.87; 163.96307; 11536671.720841
2090.88; 163.89741; 11536838.561329
2091.90; 163.51046; 11537005.007926
2092.92; 162.84291; 11537170.774979
2093.94; 161.98582; 11537335.669551
2094.96; 161.05325; 11537499.614808
2095.97; 160.16499; 11537662.655853
2096.99; 159.44182; 11537824.960744
2098.01; 159.0067; 11537986.8227
2099.03; 158.98098; 11538148.658477
2100.04; 159.46771; 11538310.989723
2101.06; 160.52203; 11538474.394225
2102.08; 162.11822; 11538639.423576
2103.10; 164.12835; 11538806.499155
2104.12; 166.32646; 11538975.812318
2105.13; 168.42366; 11539147.260333
2106.15; 170.12779; 11539320.443077
2107.17; 171.21074; 11539494.728221
2108.19; 171.5617; 11539669.370631
2109.21; 171.20846; 11539843.653452
2110.22; 170.29935; 11540017.010837
2111.24; 169.05219; 11540189.098672
2112.26; 167.68775; 11540359.797571
2113.28; 166.3702; 11540529.155256
2114.30; 165.17374; 11540697.294993
2115.31; 164.08461; 11540864.326046
2116.33; 163.0349; 11541030.288543
2117.35; 161.95361; 11541195.150334
2118.37; 160.8152; 11541358.853271
2119.39; 159.66747; 11541521.387863
2120.40; 158.62835; 11541682.864678
2121.42; 157.85216; 11541843.551362
2122.44; 157.47603; 11542003.855161
2123.46; 157.56411; 11542164.248622
2124.48; 158.06812; 11542325.155146
2125.49; 158.81848; 11542486.825502
2126.51; 159.55155; 11542649.242095
2127.53; 159.96817; 11542812.08279
2128.55; 159.80904; 11542974.761499
2129.57; 158.9269; 11543136.542225
2130.58; 157.3347; 11543296.702156
2131.60; 155.21446; 11543454.703782
2132.62; 152.88166; 11543610.330713
2133.64; 150.7122; 11543763.749234
2134.66; 149.05075; 11543915.476466
2135.67; 148.12513; 11544066.261461
2136.69; 147.99136; 11544216.910279
2137.71; 148.52518; 11544368.102504
2138.73; 149.46277; 11544520.249157
2139.75; 150.47816; 11544673.429425
2140.76; 151.27383; 11544827.419653
2141.78; 151.65737; 11544981.800312
2142.80; 151.58194; 11545136.104191
2143.82; 151.14088; 11545289.959081
2144.84; 150.52164; 11545443.18362
2145.85; 149.93722; 11545595.813243
2146.87; 149.55861; 11545748.057457
2147.89; 149.46983; 11545900.211294
2148.91; 149.657; 11546052.555662
2149.92; 150.03066; 11546205.280405
2150.94; 150.46943; 11546358.451791
2151.96; 150.86768; 11546512.028581
2152.98; 151.17126; 11546665.914403
2154.00; 151.39152; 11546820.024438
2155.01; 151.59667; 11546974.343308
2156.03; 151.88655; 11547128.957265
2157.05; 152.36035; 11547284.053531
2158.07; 153.08641; 11547439.888895
2159.09; 154.08031; 11547596.736007
2160.10; 155.29414; 11547754.818743
2161.12; 156.61778; 11547914.248883
2162.14; 157.8924; 11548074.976536
2163.16; 158.93615; 11548236.766681
2164.18; 159.58057; 11548399.212812
2165.19; 159.71324; 11548561.793997
2166.21; 159.31784; 11548723.972685
2167.23; 158.49933; 11548885.318163
2168.25; 157.48234; 11549045.628394
2169.27; 156.57609; 11549205.016098
2170.28; 156.10869; 11549363.928013
2171.30; 156.34527; 11549523.080754
2172.32; 157.41246; 11549683.319843
2173.34; 159.25361; 11549845.433147
2174.36; 161.6321; 11550009.967654
2175.37; 164.1858; 11550177.101709
2176.39; 166.51934; 11550346.611214
2177.41; 168.30763; 11550517.941122
2178.43; 169.37893; 11550690.361564
2179.45; 169.75204; 11550863.161811
2180.46; 169.61641; 11551035.823994
2181.48; 169.26239; 11551208.125804
2182.50; 168.98431; 11551380.144543
2183.52; 168.98684; 11551552.165851
2184.54; 169.32236; 11551724.528709
2185.55; 169.87605; 11551897.455202
2186.57; 170.3996; 11552070.914641
2187.59; 170.58055; 11552244.558279
2188.61; 170.12565; 11552417.738852
2189.63; 168.83558; 11552589.606189
2190.64; 166.654; 11552759.252772
2191.66; 163.68297; 11552925.874976
2192.68; 160.16569; 11553088.916734
2193.70; 156.44379; 11553248.169761
2194.71; 152.89963; 11553403.814984
2195.73; 149.89377; 11553556.400369
2196.75; 147.70729; 11553706.760015
2197.77; 146.49712; 11553855.887763
2198.79; 146.2716; 11554004.785943
2199.80; 146.89179; 11554154.315449
2200.82; 148.10058; 11554305.075453
2201.84; 149.57638; 11554457.33775
2202.86; 151.00162; 11554611.050888
2203.88; 152.13113; 11554765.913814
2204.89; 152.8428; 11554921.501185
2205.91; 153.15643; 11555077.407825
2206.93; 153.21397; 11555233.373032
2207.95; 153.22524; 11555389.349717
2208.97; 153.39394; 11555545.498131
2209.98; 153.84474; 11555702.105433
2211.00; 154.5729; 11555859.453974
2212.02; 155.43125; 11556017.67628
2213.04; 156.15825; 11556176.638644
2214.06; 156.43904; 11556335.886837
2215.07; 155.98187; 11556494.669646
2216.09; 154.58888; 11556652.03445
2217.11; 152.20289; 11556806.97042
2218.13; 148.9198; 11556958.564348
2219.15; 144.96647; 11557106.133963
2220.16; 140.65299; 11557249.312636
2221.18; 136.31346; 11557388.07386
2222.20; 132.2503; 11557522.698962
2223.22; 128.69281; 11557653.702688
2224.24; 125.77526; 11557781.736476
2225.25; 123.5336; 11557907.488347
2226.27; 121.91596; 11558031.593529
2227.29; 120.80137; 11558154.564109
2228.31; 120.02228; 11558276.741607
2229.33; 119.38894; 11558398.274396
2230.34; 118.71558; 11558519.121733
2231.36; 117.84805; 11558639.085967
2232.38; 116.69098; 11558757.872352
2233.40; 115.22944; 11558875.170953
2234.42; 113.5385; 11558990.748251
2235.43; 111.77429; 11559104.529654
2236.45; 110.14403; 11559216.651528
2237.47; 108.85869; 11559327.464975
2238.49; 108.07837; 11559437.484092
2239.51; 107.86552; 11559547.286537
2240.52; 108.16079; 11559657.38955
2241.54; 108.79163; 11559768.134735
2242.56; 109.51434; 11559879.615604
2243.58; 110.07945; 11559991.671729
2244.59; 110.30228; 11560103.954691
2245.61; 110.11732; 11560216.049372
2246.63; 109.59921; 11560327.616638
2247.65; 108.94304; 11560438.51595
2248.67; 108.40925; 11560548.871886
2249.68; 108.24954; 11560659.065242
2250.70; 108.636; 11560769.651997
2251.72; 109.61428; 11560881.2346
2252.74; 111.09352; 11560994.323013
2253.76; 112.87415; 11561109.224031
2254.77; 114.70314; 11561225.986878
2255.79; 116.33921; 11561344.415178
2256.81; 117.60902; 11561464.136085
2257.83; 118.43994; 11561584.702831
2258.85; 118.86345; 11561705.700692
2259.86; 118.99184; 11561826.829253
2260.88; 118.97782; 11561947.943543
2261.90; 118.96952; 11562069.049377
2262.92; 119.07262; 11562190.260165
2263.94; 119.32785; 11562311.730765
2264.95; 119.70717; 11562433.587503
2265.97; 120.12775; 11562555.872371
2266.99; 120.47889; 11562678.51468
2268.01; 120.65501; 11562801.33627
2269.03; 120.58637; 11562924.087993
2270.04; 120.25965; 11563046.507127
2271.06; 119.72223; 11563168.379191
2272.08; 119.06796; 11563289.585236
2273.10; 118.40697; 11563410.118427
2274.12; 117.82751; 11563530.061751
2275.13; 117.36128; 11563649.530472
2276.15; 116.96422; 11563768.595006
2277.17; 116.52089; 11563887.208242
2278.19; 115.8733; 11564005.162265
2279.21; 114.86696; 11564122.091876
2280.22; 113.3998; 11564237.527983
2281.24; 111.45812; 11564350.987541
2282.26; 109.12693; 11564462.074046
2283.28; 106.57079; 11564570.558509
2284.30; 103.99134; 11564676.417208
2285.31; 101.57598; 11564779.817177
2286.33; 99.45511; 11564881.058187
2287.35; 97.681946; 11564980.494193
2288.37; 96.240374; 11565078.46274
2289.38; 95.07577; 11565175.245771
2290.40; 94.135632; 11565271.071783
2291.42; 93.403788; 11565366.152809
2292.44; 92.915181; 11565460.736453
2293.46; 92.746142; 11565555.148024
2294.47; 92.984426; 11565649.802157
2295.49; 93.690583; 11565745.175128
2296.51; 94.864902; 11565841.743504
2297.53; 96.431543; 11565939.906654
2298.55; 98.24517; 11566039.915997
2299.56; 100.11776; 11566141.83156
2300.58; 101.8573; 11566245.517901
2301.60; 103.3072; 11566350.680172
2302.62; 104.37615; 11566456.930587
2303.64; 105.05168; 11566563.868667
2304.65; 105.39528; 11566671.15651
2305.67; 105.52128; 11566778.572624
2306.69; 105.5652; 11566886.033443
2307.71; 105.64851; 11566993.579068
2308.73; 105.84771; 11567101.327465
2309.74; 106.17434; 11567209.408361
2310.76; 106.57089; 11567317.892931
2311.78; 106.92422; 11567426.737171
2312.80; 107.09439; 11567535.754635
2313.82; 106.95289; 11567644.628058
2314.83; 106.42119; 11567752.960236
2315.85; 105.49999; 11567860.354678
2316.87; 104.28127; 11567966.508513
2317.89; 102.93949; 11568071.296472
2318.91; 101.70365; 11568174.8264
2319.92; 100.81656; 11568277.453308
2320.94; 100.49046; 11568379.748255
2321.96; 100.86838; 11568482.427914
2322.98; 101.99856; 11568586.258042
2324.00; 103.82577; 11568691.948192
2325.01; 106.2006; 11568800.055817
2326.03; 108.90464; 11568910.916038
2327.05; 111.68797; 11569024.609568
2328.07; 114.31343; 11569140.975708
2329.09; 116.60039; 11569259.669874
2330.10; 118.45907; 11569380.256099
2331.12; 119.90638; 11569502.315619
2332.14; 121.05643; 11569625.545837
2333.16; 122.08472; 11569749.822815
2334.18; 123.17296; 11569875.207578
2335.19; 124.44921; 11570001.891505
2336.21; 125.94253; 11570130.095566
2337.23; 127.56903; 11570259.955333
2338.25; 129.1571; 11570391.431685
2339.26; 130.50589; 11570524.281045
2340.28; 131.45773; 11570658.099338
2341.30; 131.95781; 11570792.426693
2342.32; 132.07706; 11570926.875438
2343.34; 131.98696; 11571061.232464
2344.35; 131.89376; 11571195.494617
2345.37; 131.95692; 11571329.82107
2346.39; 132.22519; 11571464.420608
2347.41; 132.61911; 11571599.42114
2348.43; 132.97174; 11571734.780638
2349.44; 133.11597; 11571870.286954
2350.46; 132.98632; 11572005.66129
2351.48; 132.69431; 11572140.73837
2352.50; 132.54319; 11572275.661622
2353.52; 132.96878; 11572411.018099
2354.53; 134.42012; 11572547.851985
2355.55; 137.21718; 11572687.53315
2356.57; 141.43246; 11572831.505287
2357.59; 146.83738; 11572980.979403
2358.61; 152.93262; 11573136.658207
2359.62; 159.05436; 11573298.56868
2360.64; 164.52443; 11573466.047448
2361.66; 168.79995; 11573637.878509
2362.68; 171.58119; 11573812.540761
2363.70; 172.85215; 11573988.496786
2364.71; 172.84996; 11574164.450583
2365.73; 171.97992; 11574339.51872
2366.75; 170.70449; 11574513.28852
2367.77; 169.43688; 11574685.767953
2368.79; 168.46307; 11574857.256093
2369.80; 167.90447; 11575028.175597
2370.82; 167.72223; 11575198.909589
2371.84; 167.75561; 11575369.677563
2372.86; 167.78185; 11575540.47225
2373.88; 167.58336; 11575711.064883
2374.89; 167.00809; 11575881.071909
2375.91; 166.01033; 11576050.063257
2376.93; 164.66245; 11576217.682521
2377.95; 163.13349; 11576383.745371
2378.97; 161.63857; 11576548.286464
2379.98; 160.37187; 11576711.538109
2381.00; 159.44258; 11576873.843774
2382.02; 158.83521; 11577035.531162
2383.04; 158.41005; 11577196.785755
2384.05; 157.94812; 11577357.570126
2385.07; 157.23031; 11577517.623802
2386.09; 156.12779; 11577676.555151
2387.11; 154.67507; 11577834.0077
2388.13; 153.10085; 11577989.857758
2389.14; 151.80345; 11578144.38712
2390.16; 151.27467; 11578298.378203
2391.18; 151.99075; 11578453.09823
2392.20; 154.29871; 11578610.167656
2393.22; 158.32629; 11578771.336987
2394.23; 163.93658; 11578938.217354
2395.25; 170.73544; 11579112.018662
2396.27; 178.12717; 11579293.344439
2397.29; 185.40436; 11579482.07808
2398.31; 191.85291; 11579677.376066
2399.32; 196.85397; 11579877.764914
2400.34; 199.96743; 11580081.323131
2401.36; 200.98642; 11580285.91863
2402.38; 199.95658; 11580489.465799
2403.40; 197.15845; 11580690.164591
2404.41; 193.05559; 11580886.686852
2405.43; 188.21636; 11581078.28299
2406.45; 183.22192; 11581264.795
2407.47; 178.57653; 11581446.578204
2408.49; 174.63656; 11581624.350681
2409.50; 171.57077; 11581799.002317
2410.52; 169.35756; 11581971.401001
2411.54; 167.81586; 11582142.23031
2412.56; 166.65924; 11582311.882224
2413.58; 165.55862; 11582480.413758
2414.59; 164.20033; 11582647.562608
2415.61; 162.3304; 11582812.807952
2416.63; 159.78272; 11582975.459863
2417.65; 156.49332; 11583134.763306
2418.67; 152.50521; 11583290.007024
2419.68; 147.96638; 11583440.630417
2420.70; 143.12041; 11583586.320815
2421.72; 138.28583; 11583727.089827
2422.74; 133.82076; 11583863.313582
2423.76; 130.072; 11583995.721265
2424.77; 127.31461; 11584125.322048
2425.79; 125.69338; 11584253.272484
2426.81; 125.18144; 11584380.701786
2427.83; 125.56981; 11584508.526435
2428.85; 126.49508; 11584637.292965
2429.86; 127.50287; 11584767.085389
2430.88; 128.13487; 11584897.521155
2431.90; 128.01993; 11585027.839919
2432.92; 126.94852; 11585157.068035
2433.93; 124.91324; 11585284.224326
2434.95; 122.10683; 11585408.523807
2435.97; 118.87888; 11585529.53738
2436.99; 115.66182; 11585647.276119
2438.01; 112.88218; 11585762.185304
2439.02; 110.87562; 11585875.051903
2440.04; 109.82173; 11585986.845686
2441.06; 109.71039; 11586098.526129
2442.08; 110.34542; 11586210.853009
2443.10; 111.38484; 11586324.237969
2444.11; 112.41095; 11586438.667466
2445.13; 113.01822; 11586553.715133
2446.15; 112.90261; 11586668.645122
2447.17; 111.93433; 11586782.589436
2448.19; 110.19675; 11586894.764968
2449.20; 107.97994; 11587004.683891
2450.22; 105.72562; 11587112.308005
2451.24; 103.93201; 11587218.106302
2452.26; 103.03835; 11587322.994899
2453.28; 103.31615; 11587428.166286
2454.29; 104.7956; 11587534.843681
2455.31; 107.24879; 11587644.018322
2456.33; 110.23784; 11587756.235688
2457.35; 113.21848; 11587871.487213
2458.37; 115.67415; 11587989.238504
2459.38; 117.24588; 11588108.58975
2460.40; 117.82316; 11588228.528639
2461.42; 117.57106; 11588348.210903
2462.44; 116.88607; 11588467.195875
2463.46; 116.29237; 11588585.576486
2464.47; 116.30622; 11588703.9712
2465.49; 117.30376; 11588823.381365
2466.51; 119.4254; 11588944.951265
2467.53; 122.53924; 11589069.690924
2468.55; 126.27007; 11589198.228402
2469.56; 130.08437; 11589330.648679
2470.58; 133.40976; 11589466.454063
2471.60; 135.76086; 11589604.652761
2472.62; 136.84445; 11589743.954504
2473.64; 136.62244; 11589883.030252
2474.65; 135.32038; 11590020.780556
2475.67; 133.37992; 11590156.55556
2476.69; 131.36456; 11590290.279017
2477.71; 129.83725; 11590422.447733
2478.72; 129.23554; 11590554.003938
2479.74; 129.77259; 11590686.106837
2480.76; 131.38863; 11590819.854793
2481.78; 133.7677; 11590956.024538
2482.80; 136.41862; 11591094.892806
2483.81; 138.80153; 11591236.186776
2484.83; 140.46686; 11591379.175979
2485.85; 141.16764; 11591522.878549
2486.87; 140.9121; 11591666.320987
2487.89; 139.94048; 11591808.77436
2488.90; 138.63407; 11591949.89786
2489.92; 137.38647; 11592089.751358
2490.94; 136.48029; 11592228.682399
2491.96; 136.01028; 11592367.134995
2492.98; 135.8775; 11592505.452423
2493.99; 135.85301; 11592643.744928
2495.01; 135.68451; 11592781.865905
2496.03; 135.20342; 11592919.497149
2497.05; 134.39097; 11593056.301356
2498.07; 133.37822; 11593192.074628
2499.08; 132.38135; 11593326.833132
2500.10; 131.59942; 11593460.795659
2501.12; 131.11676; 11593594.26686
2502.14; 130.85082; 11593727.467347
2503.16; 130.56853; 11593860.380474
2504.17; 129.96758; 11593992.681866
2505.19; 128.79359; 11594123.78818
2506.21; 126.94942; 11594253.017209
2507.23; 124.55536; 11594379.809189
2508.25; 121.93607; 11594503.93485
2509.26; 119.53668; 11594625.61803
2510.28; 117.7952; 11594745.528458
2511.30; 117.01339; 11594864.643036
2512.32; 117.26751; 11594984.016298
2513.34; 118.38613; 11595104.528274
2514.35; 119.99921; 11595226.682291
2515.37; 121.63995; 11595350.506514
2516.39; 122.86634; 11595475.579146
2517.41; 123.366; 11595601.160415
2518.43; 123.01706; 11595726.386475
2519.44; 121.89349; 11595850.468785
2520.46; 120.221; 11595972.84858
2521.48; 118.3024; 11596093.275319
2522.50; 116.4366; 11596211.80275
2523.52; 114.85327; 11596328.718418
2524.53; 113.67667; 11596444.436361
2525.55; 112.92227; 11596559.386356
2526.57; 112.5207; 11596673.927575
2527.59; 112.35816; 11596788.303333
2528.60; 112.32043; 11596902.640687
2529.62; 112.32944; 11597016.987206
2530.64; 112.36436; 11597131.369272
2531.66; 112.46374; 11597245.852504
2532.68; 112.70906; 11597360.585468
2533.69; 113.19401; 11597475.812081
2534.71; 113.9867; 11597591.845624
2535.73; 115.09435; 11597709.006704
2536.75; 116.43979; 11597827.537383
2537.77; 117.85801; 11597947.511754
2538.78; 119.11649; 11598068.7672
2539.80; 119.95736; 11598190.878621
2540.82; 120.15333; 11598313.189524
2541.84; 119.56398; 11598434.900499
2542.86; 118.17761; 11598555.200209
2543.87; 116.12563; 11598673.411085
2544.89; 113.66324; 11598789.115362
2545.91; 111.11899; 11598902.229703
2546.93; 108.82456; 11599013.008412
2547.95; 107.04275; 11599121.973316
2548.96; 105.91258; 11599229.787755
2549.98; 105.4261; 11599337.10698
2551.00; 105.44256; 11599444.44296
2552.02; 105.73472; 11599552.076338
2553.04; 106.05298; 11599660.033695
2554.05; 106.18853; 11599768.129035
2555.07; 106.01799; 11599876.050774
2556.09; 105.51937; 11599983.464937
2557.11; 104.75863; 11600090.104703
2558.13; 103.85557; 11600195.825194
2559.14; 102.94293; 11600300.616658
2560.16; 102.13272; 11600404.583357
2561.18; 101.49858; 11600507.904528
2562.20; 101.07567; 11600610.795199
2563.22; 100.87241; 11600713.478956
2564.23; 100.88491; 11600816.175445
2565.25; 101.10593; 11600919.096919
2566.27; 101.52423; 11601022.444201
2567.29; 102.11638; 11601126.394268
2568.31; 102.83686; 11601231.077751
2569.32; 103.61339; 11601336.55171
2570.34; 104.35185; 11601442.777391
2571.36; 104.95036; 11601549.612328
2572.38; 105.31791; 11601656.821411
2573.39; 105.39089; 11601764.104787
2574.41; 105.14217; 11601871.134981
2575.43; 104.58094; 11601977.593863
2576.45; 103.74565; 11602083.202454
2577.47; 102.69488; 11602187.741407
2578.48; 101.50044; 11602291.064472
2579.50; 100.2444; 11602393.108945
2580.52; 99.018101; 11602493.905099
2581.54; 97.919033; 11602593.582449
2582.56; 97.042027; 11602692.367045
2583.57; 96.46435; 11602790.563591
2584.59; 96.228503; 11602888.520054
2585.61; 96.329441; 11602986.579268
2586.63; 96.712686; 11603085.028609
2587.65; 97.286015; 11603184.061574
2588.66; 97.941644; 11603283.761941
2589.68; 98.580736; 11603384.112875
2590.70; 99.130317; 11603485.02326
2591.72; 99.545578; 11603586.356363
2592.74; 99.797117; 11603687.945522
2593.75; 99.850132; 11603789.588648
2594.77; 99.647428; 11603891.02543
2595.79; 99.107698; 11603991.912789
2596.81; 98.144566; 11604091.819722
2597.83; 96.702579; 11604190.258775
2598.84; 94.797507; 11604286.758546
2599.86; 92.544066; 11604380.964412
2600.88; 90.156667; 11604472.740008
2601.90; 87.917441; 11604562.236169
2602.92; 86.117492; 11604649.90006
2603.93; 84.987442; 11604736.413608
2604.95; 84.637965; 11604822.571405
2605.97; 85.028336; 11604909.126581
2606.99; 85.972229; 11604996.6426
2608.01; 87.178509; 11605085.38656
2609.02; 88.31485; 11605175.287267
2610.04; 89.076978; 11605265.963786
2611.06; 89.247202; 11605356.813587
2612.08; 88.731384; 11605447.138307
2613.10; 87.570592; 11605536.281392
2614.11; 85.929679; 11605623.754097
2615.13; 84.068002; 11605709.331695
2616.15; 82.297831; 11605793.107336
2617.17; 80.935125; 11605875.4958
2618.19; 80.247186; 11605957.183973
2619.20; 80.403185; 11606039.030946
2620.22; 81.435998; 11606121.929278
2621.24; 83.225362; 11606206.649105
2622.26; 85.510807; 11606293.695416
2623.27; 87.937126; 11606383.211616
2624.29; 90.12625; 11606474.95625
2625.31; 91.760065; 11606568.364036
2626.33; 92.652786; 11606662.680574
2627.35; 92.791938; 11606757.138763
2628.36; 92.334619; 11606851.131421
2629.38; 91.558648; 11606944.334174
2630.40; 90.782089; 11607036.746422
2631.42; 90.274683; 11607128.642154
2632.44; 90.187182; 11607220.448813
2633.45; 90.518503; 11607312.592743
2634.47; 91.128143; 11607405.357261
2635.49; 91.786881; 11607498.792345
2636.51; 92.247433; 11607592.696251
2637.53; 92.312194; 11607686.666081
2638.54; 91.878509; 11607780.194438
2639.56; 90.951269; 11607872.778906
2640.58; 89.624294; 11607964.012569
2641.60; 88.041518; 11608053.635035
2642.62; 86.353596; 11608141.539269
2643.63; 84.684058; 11608227.743986
2644.65; 83.1132; 11608312.349637
2645.67; 81.68011; 11608395.496465
2646.69; 80.396885; 11608477.337025
2647.71; 79.266061; 11608558.026455
2648.72; 78.293259; 11608637.725614
2649.74; 77.490746; 11608716.60785
2650.76; 76.872299; 11608794.860533
2651.78; 76.443315; 11608872.676529
2652.80; 76.191533; 11608950.236221
2653.81; 76.082776; 11609027.685204
2654.83; 76.063742; 11609105.114811
2655.85; 76.071115; 11609182.551923
2656.87; 76.044322; 11609259.961761
2657.89; 75.938522; 11609337.263899
2658.90; 75.734802; 11609414.358659
2659.92; 75.445607; 11609491.159032
2660.94; 75.114536; 11609567.622389
2661.96; 74.810504; 11609643.776254
2662.98; 74.616912; 11609719.73305
2663.99; 74.61701; 11609795.689946
2665.01; 74.877399; 11609871.911907
2666.03; 75.432393; 11609948.698828
2667.05; 76.27264; 11610026.341084
2668.06; 77.341296; 11610105.071186
2669.08; 78.539972; 11610185.021488
2670.10; 79.744523; 11610266.197971
2671.12; 80.827956; 11610348.477343
2672.14; 81.685284; 11610431.629438
2673.15; 82.253814; 11610515.360271
2674.17; 82.523019; 11610599.365144
2675.19; 82.530702; 11610683.377838
2676.21; 82.346128; 11610767.202642
2677.23; 82.044877; 11610850.720787
2678.24; 81.683081; 11610933.870638
2679.26; 81.279261; 11611016.609418
2680.28; 80.81; 11611098.870512
2681.30; 80.22149; 11611180.532527
2682.32; 79.454033; 11611261.413304
2683.33; 78.472335; 11611341.294755
2684.35; 77.29228; 11611419.97496
2685.37; 75.99559; 11611497.335192
2686.39; 74.727042; 11611573.404096
2687.41; 73.673758; 11611648.400802
2688.42; 73.031039; 11611722.743248
2689.44; 72.962712; 11611797.01614
2690.46; 73.565251; 11611871.902391
2691.48; 74.843687; 11611948.090035
2692.50; 76.704256; 11612026.171659
2693.51; 78.964777; 11612106.554394
2694.53; 81.380125; 11612189.39585
2695.55; 83.677607; 11612274.576043
2696.57; 85.595953; 11612361.709029
2697.59; 86.921789; 11612450.19166
2698.60; 87.518511; 11612539.281728
2699.62; 87.343915; 11612628.194065
2700.64; 86.454465; 11612716.200979
2701.66; 84.995693; 11612802.722927
2702.68; 83.17991; 11612887.396486
2703.69; 81.254164; 11612970.109718
2704.71; 79.463122; 11613050.999747
2705.73; 78.012735; 11613130.413345
2706.75; 77.040813; 11613208.837568
2707.77; 76.599597; 11613286.812652
2708.78; 76.653196; 11613364.842298
2709.80; 77.089703; 11613443.316289
2710.82; 77.744947; 11613522.45729
2711.84; 78.432787; 11613602.298483
2712.86; 78.976307; 11613682.692956
2713.87; 79.235082; 11613763.350851
2714.89; 79.125389; 11613843.897082
2715.91; 78.631897; 11613923.940961
2716.93; 77.810446; 11614003.148637
2717.94; 76.781676; 11614081.30907
2718.96; 75.715176; 11614158.383852
2719.98; 74.804083; 11614234.53118
2721.00; 74.231657; 11614310.095803
2722.02; 74.134145; 11614385.561164
2723.03; 74.567532; 11614461.467694
2724.05; 75.487794; 11614538.311011
2725.07; 76.753464; 11614616.442726
2726.09; 78.154616; 11614696.000753
2727.11; 79.464633; 11614776.89232
2728.12; 80.502465; 11614858.840355
2729.14; 81.186978; 11614941.485195
2730.16; 81.564427; 11615024.514262
2731.18; 81.796522; 11615107.779592
2732.20; 82.108691; 11615191.362696
2733.21; 82.712227; 11615275.560174
2734.23; 83.724863; 11615360.788472
2735.25; 85.117352; 11615447.434263
2736.27; 86.706791; 11615535.698034
2737.29; 88.202387; 11615625.484258
2738.30; 89.29106; 11615716.378704
2739.32; 89.735414; 11615807.725483
2740.34; 89.451029; 11615898.78277
2741.36; 88.536149; 11615988.90875
2742.38; 87.243027; 11616077.718387
2743.39; 85.900472; 11616165.16136
2744.41; 84.814279; 11616251.498636
2745.43; 84.17966; 11616337.189897
2746.45; 84.034926; 11616422.733826
2747.47; 84.270376; 11616508.517432
2748.48; 84.686467; 11616594.724602
2749.50; 85.078304; 11616681.330644
2750.52; 85.315396; 11616768.178036
2751.54; 85.389014; 11616855.100368
2752.56; 85.412482; 11616942.046589
2753.57; 85.577094; 11617029.160378
2754.59; 86.081524; 11617116.787654
2755.61; 87.060432; 11617205.411417
2756.63; 88.536416; 11617295.537669
2757.65; 90.409921; 11617387.571067
2758.66; 92.488417; 11617481.720284
2759.68; 94.543804; 11617577.961796
2760.70; 96.379493; 11617676.071961
2761.72; 97.887524; 11617775.717237
2762.73; 99.080603; 11617876.577015
2763.75; 100.09186; 11617978.46621
2764.77; 101.14368; 11618081.426117
2765.79; 102.49401; 11618185.760601
2766.81; 104.37294; 11618292.007747
2767.82; 106.92392; 11618400.851681
2768.84; 110.16282; 11618512.992674
2769.86; 113.96431; 11618629.003424
2770.88; 118.07977; 11618749.203534
2771.90; 122.18377; 11618873.581338
2772.91; 125.9394; 11619001.782216
2773.93; 129.06711; 11619133.166963
2774.95; 131.39964; 11619266.926123
2775.97; 132.90851; 11619402.221248
2776.99; 133.69442; 11619538.316398
2778.00; 133.94436; 11619674.665981
2779.02; 133.86822; 11619810.938054
2780.04; 133.63431; 11619946.97201
2781.06; 133.32401; 11620082.690095
2782.08; 132.91974; 11620217.996658
2783.09; 132.32958; 11620352.702463
2784.11; 131.43959; 11620486.502294
2785.13; 130.17543; 11620619.015269
2786.15; 128.55138; 11620749.875026
2787.17; 126.68883; 11620878.838787
2788.18; 124.79687; 11621005.876613
2789.20; 123.12034; 11621131.207805
2790.22; 121.87234; 11621255.268593
2791.24; 121.17385; 11621378.618347
2792.26; 121.02111; 11621501.81261
2793.27; 121.29233; 11621625.282966
2794.29; 121.79199; 11621749.261956
2795.31; 122.31787; 11621873.776273
2796.33; 122.72816; 11621998.708244
2797.35; 122.98545; 11622123.902124
2798.36; 123.16232; 11622249.276047
2799.38; 123.40622; 11622374.898249
2800.40; 123.87561; 11622500.998278
2801.42; 124.66936; 11622627.906304
2802.44; 125.77373; 11622755.938536
2803.45; 127.0456; 11622885.265469
2804.47; 128.23756; 11623015.805772
2805.49; 129.05688; 11623147.180107
2806.51; 129.23861; 11623278.739436
2807.52; 128.6098; 11623409.658662
2808.54; 127.12582; 11623539.067257
2809.56; 124.87073; 11623666.180269
2810.58; 122.02632; 11623790.397799
2811.60; 118.82421; 11623911.355717
2812.61; 115.49887; 11624028.928587
2813.63; 112.25582; 11624143.200173
2814.65; 109.26036; 11624254.422508
2815.67; 106.6429; 11624362.980382
2816.69; 104.51043; 11624469.367491
2817.70; 102.95296; 11624574.169161
2818.72; 102.03853; 11624678.039986
2819.74; 101.79774; 11624781.665691
2820.76; 102.2053; 11624885.706279
2821.78; 103.16912; 11624990.727988
2822.79; 104.53463; 11625097.139725
2823.81; 106.10679; 11625205.151856
2824.83; 107.68489; 11625314.770422
2825.85; 109.10089; 11625425.830418
2826.87; 110.25119; 11625538.061372
2827.88; 111.1144; 11625651.171039
2828.90; 111.75254; 11625764.9303
2829.92; 112.29718; 11625879.243987
2830.94; 112.92454; 11625994.1963
2831.96; 113.82328; 11626110.063485
2832.97; 115.15833; 11626227.289697
2833.99; 117.03387; 11626346.425126
2835.01; 119.45985; 11626468.030101
2836.03; 122.32946; 11626592.556212
2837.05; 125.41609; 11626720.224379
2838.06; 128.3974; 11626850.927389
2839.08; 130.90809; 11626984.186176
2840.10; 132.61437; 11627119.181879
2841.12; 133.29366; 11627254.869073
2842.14; 132.89769; 11627390.153185
2843.15; 131.57819; 11627524.094102
2844.17; 129.66354; 11627656.08599
2845.19; 127.58877; 11627785.965855
2846.21; 125.79631; 11627914.021068
2847.23; 124.63486; 11628040.893976
2848.24; 124.2853; 11628167.411043
2849.26; 124.73428; 11628294.385163
2850.28; 125.80167; 11628422.445838
2851.30; 127.21124; 11628551.941395
2852.32; 128.68191; 11628682.934027
2853.33; 130.01172; 11628815.280343
2854.35; 131.13087; 11628948.765911
2855.37; 132.11077; 11629083.24897
2856.39; 133.12911; 11629218.768658
2857.40; 134.40336; 11629355.585483
2858.42; 136.11207; 11629494.141692
2859.44; 138.32544; 11629634.951022
2860.46; 140.96351; 11629778.445792
2861.48; 143.79281; 11629924.820671
2862.49; 146.46398; 11630073.914686
2863.51; 148.58293; 11630225.165698
2864.53; 149.80018; 11630377.655813
2865.55; 149.89715; 11630530.244644
2866.57; 148.84724; 11630681.764708
2867.58; 146.83369; 11630831.235069
2868.60; 144.21682; 11630978.041571
2869.62; 141.45654; 11631122.038229
2870.64; 139.01008; 11631263.544488
2871.66; 137.2332; 11631403.241962
2872.67; 136.31347; 11631542.00319
2873.69; 136.25407; 11631680.703955
2874.71; 136.91029; 11631820.072719
2875.73; 138.06272; 11631960.614615
2876.75; 139.49927; 11632102.618856
2877.76; 141.07625; 11632246.228392
2878.78; 142.73905; 11632391.530585
2879.80; 144.50017; 11632538.62552
2880.82; 146.39021; 11632687.644434
2881.84; 148.40797; 11632838.717341
2882.85; 150.49476; 11632991.914511
2883.87; 152.54588; 11633147.199637
2884.89; 154.45477; 11633304.427924
2885.91; 156.16996; 11633463.402202
2886.93; 157.73922; 11633623.973924
2887.94; 159.32033; 11633786.155149
2888.96; 161.15223; 11633950.201161
2889.98; 163.49607; 11634116.633104
2891.00; 166.56654; 11634286.190658
2892.02; 170.47458; 11634459.726425
2893.03; 175.19521; 11634638.067589
2894.05; 180.56246; 11634821.872386
2895.07; 186.2845; 11635011.501965
2896.09; 191.97018; 11635206.919321
2897.11; 197.16366; 11635407.623418
2898.12; 201.39083; 11635612.630591
2899.14; 204.22471; 11635820.522529
2900.16; 205.3714; 11636029.581748
2901.18; 204.76436; 11636238.023028
2902.19; 202.63936; 11636444.301154
2903.21; 199.55452; 11636647.439043
2904.23; 196.32685; 11636847.2913
2905.25; 193.88052; 11637044.6533
2906.27; 193.03491; 11637241.154504
2907.28; 194.2901; 11637438.933441
2908.30; 197.67954; 11637640.162679
2909.32; 202.74593; 11637846.549282
2910.34; 208.65947; 11638058.955618
2911.36; 214.44943; 11638277.255885
2912.37; 219.27933; 11638500.472786
2913.39; 222.67938; 11638727.150784
2914.41; 224.66441; 11638955.849458
2915.43; 225.70687; 11639185.609314
2916.45; 226.58538; 11639416.263455
2917.46; 228.17063; 11639648.531314
2918.48; 231.22515; 11639883.90854
2919.50; 236.27723; 11640124.428567
2920.52; 243.59092; 11640372.393614
2921.54; 253.21065; 11640630.151126
2922.55; 265.03082; 11640899.941061
2923.57; 278.83898; 11641183.787105
2924.59; 294.30578; 11641483.37769
2925.61; 310.93336; 11641799.894437
2926.63; 328.00647; 11642133.790865
2927.64; 344.60139; 11642484.580211
2928.66; 359.6895; 11642850.728604
2929.68; 372.33119; 11643229.745692
2930.70; 381.91032; 11643618.513916
2931.72; 388.32851; 11644013.815585
2932.73; 392.07886; 11644412.934947
2933.75; 394.15193; 11644814.164607
2934.77; 395.78336; 11645217.054992
2935.79; 398.11044; 11645622.314246
2936.81; 401.84308; 11646031.373164
2937.82; 407.05687; 11646445.739496
2938.84; 413.1805; 11646866.33942
2939.86; 419.18787; 11647293.054587
2940.88; 423.93836; 11647724.605544
2941.90; 426.55966; 11648158.824876
2942.91; 426.75312; 11648593.241137
2943.93; 424.92594; 11649025.79741
2944.95; 422.10981; 11649455.486981
2945.97; 419.69181; 11649882.715136
2946.99; 419.04041; 11650309.280194
2948.00; 421.13776; 11650737.980257
2949.02; 426.32303; 11651171.958707
2950.04; 434.2131; 11651613.96891
2951.06; 443.81089; 11652065.749241
2952.07; 453.75726; 11652527.654553
2953.09; 462.64614; 11652998.608361
2954.11; 469.3141; 11653476.349867
2955.13; 473.03585; 11653957.879955
2956.15; 473.59482; 11654439.97905
2957.16; 471.23969; 11654919.680715
2958.18; 466.56789; 11655394.626692
2959.20; 460.38752; 11655863.281318
2960.22; 453.5984; 11656325.024913
2961.24; 447.11005; 11656780.163653
2962.25; 441.78985; 11657229.886656
2963.27; 438.42053; 11657676.179832
2964.29; 437.64796; 11658121.686567
2965.31; 439.91527; 11658569.50133
2966.33; 445.39925; 11659022.898551
2967.34; 453.97837; 11659485.028946
2968.36; 465.25992; 11659958.64347
2969.38; 478.67559; 11660445.914562
2970.40; 493.6266; 11660948.405142
2971.42; 509.63397; 11661467.190535
2972.43; 526.43859; 11662003.082304
2973.45; 544.00786; 11662556.858826
2974.47; 562.43764; 11663129.396072
2975.49; 581.78052; 11663721.62354
2976.51; 601.86659; 11664334.297759
2977.52; 622.19672; 11664967.667171
2978.54; 641.97216; 11665621.167125
2979.56; 660.28122; 11666293.304915
2980.58; 676.4077; 11666981.858767
2981.60; 690.17564; 11667684.427789
2982.61; 702.22011; 11668399.257556
2983.63; 714.0842; 11669126.16446
2984.65; 728.08778; 11669867.326403
2985.67; 746.97939; 11670627.719193
2986.69; 773.4494; 11671415.057309
2987.70; 809.62637; 11672239.222021
2988.72; 856.68602; 11673111.291425
2989.74; 914.66871; 11674042.384698
2990.76; 982.53821; 11675042.566198
2991.78; 1058.4421; 11676120.014564
2992.79; 1140.0762; 11677280.562915
2993.81; 1225.0337; 11678527.594404
2994.83; 1311.0396; 11679862.176169
2995.85; 1396.0266; 11681283.270987
2996.86; 1478.0821; 11682787.894811
2997.88; 1555.3535; 11684371.177588
2998.90; 1626.0208; 11686026.396562
2999.92; 1688.4206; 11687745.135915
3000.94; 1741.336; 11689517.740828
3001.95; 1784.3769; 11691334.159473
3002.97; 1818.3095; 11693185.120104
3003.99; 1845.1689; 11695063.422467
3005.01; 1868.0341; 11696965.000612
3006.03; 1890.4504; 11698889.397523
3007.04; 1915.6117; 11700839.407577
3008.06; 1945.5261; 11702819.869168
3009.08; 1980.4274; 11704835.858851
3010.10; 2018.6489; 11706890.756278
3011.12; 2057.0353; 11708984.729492
3012.13; 2091.7968; 11711114.088407
3013.15; 2119.5409; 11713271.689607
3014.17; 2138.1461; 11715448.230101
3015.19; 2147.1748; 11717633.961359
3016.21; 2147.6761; 11719820.202994
3017.22; 2141.4477; 11722000.104367
3018.24; 2130.0276; 11724168.380558
3019.26; 2113.8078; 11726320.145695
3020.28; 2091.6353; 11728449.340185
3021.30; 2061.1061; 11730547.457275
3022.31; 2019.5084; 11732603.229701
3023.33; 1965.122; 11734603.639094
3024.35; 1898.424; 11736536.152788
3025.37; 1822.7475; 11738391.631094
3026.39; 1744.098; 11740167.047599
3027.40; 1670.1012; 11741867.138577
3028.42; 1608.3456; 11743504.365042
3029.44; 1564.5901; 11745097.050236
3030.46; 1541.3627; 11746666.09098
3031.48; 1537.3618; 11748231.058975
3032.49; 1547.8225; 11749806.675492
3033.51; 1565.7228; 11751400.513739
3034.53; 1583.463; 11753012.410776
3035.55; 1594.5406; 11754635.584256
3036.57; 1594.7846; 11756259.006177
3037.58; 1582.8868; 11757870.316613
3038.60; 1560.1943; 11759458.527113
3039.62; 1529.9452; 11761015.9453
3040.64; 1496.2482; 11762539.061412
3041.66; 1463.123; 11764028.457526
3042.67; 1433.8245; 11765488.029035
3043.69; 1410.5343; 11766923.892064
3044.71; 1394.3655; 11768343.295995
3045.73; 1385.5457; 11769753.721761
3046.74; 1383.6313; 11771162.198702
3047.76; 1387.6618; 11772574.778533
3048.78; 1396.2417; 11773996.092371
3049.80; 1407.6038; 11775428.972332
3050.82; 1419.7325; 11776874.198721
3051.83; 1430.5974; 11778330.485185
3052.85; 1438.4851; 11779794.800986
3053.87; 1442.3465; 11781263.047466
3054.89; 1442.0424; 11782730.984425
3055.91; 1438.3791; 11784195.192325
3056.92; 1432.8864; 11785653.808877
3057.94; 1427.3824; 11787106.822522
3058.96; 1423.4505; 11788555.833733
3059.98; 1421.9981; 11790003.366437
3061.00; 1423.0442; 11791451.964073
3062.01; 1425.8121; 11792903.379285
3063.03; 1429.0903; 11794358.131539
3064.05; 1431.7313; 11795815.572221
3065.07; 1433.1043; 11797274.41052
3066.09; 1433.3367; 11798733.485406
3067.10; 1433.2608; 11800192.483032
3068.12; 1434.0927; 11801652.327467
3069.14; 1436.9717; 11803115.102602
3070.16; 1442.5353; 11804583.541251
3071.18; 1450.6813; 11806060.272174
3072.19; 1460.5873; 11807547.087007
3073.21; 1470.9533; 11809044.453993
3074.23; 1480.3506; 11810551.387008
3075.25; 1487.5359; 11812065.634397
3076.27; 1491.6285; 11813584.047892
3077.28; 1492.1282; 11815102.970062
3078.30; 1488.8352; 11816618.540021
3079.32; 1481.7732; 11818126.921162
3080.34; 1471.2016; 11819624.540869
3081.36; 1457.7331; 11821108.450263
3082.37; 1442.4951; 11822576.847999
3083.39; 1427.2189; 11824029.695282
3084.41; 1414.15; 11825469.23898
3085.43; 1405.734; 11826900.215569
3086.45; 1404.1325; 11828329.561843
3087.46; 1410.7021; 11829765.59574
3088.48; 1425.6064; 11831216.801493
3089.50; 1447.6952; 11832690.492736
3090.52; 1474.7112; 11834191.685057
3091.53; 1503.7818; 11835722.469999
3092.55; 1532.0835; 11837282.064905
3093.57; 1557.5238; 11838867.556904
3094.59; 1579.2885; 11840475.204421
3095.61; 1598.1307; 11842102.032501
3096.62; 1616.3181; 11843747.374593
3097.64; 1637.2145; 11845413.98834
3098.66; 1664.5515; 11847108.429972
3099.68; 1701.551; 11848840.5355
3100.70; 1750.1658; 11850622.128795
3101.71; 1810.7611; 11852465.405455
3102.73; 1882.5026; 11854381.711867
3103.75; 1964.5095; 11856381.49778
3104.77; 2057.4988; 11858475.942735
3105.79; 2165.3034; 11860680.128157
3106.80; 2295.4549; 11863016.8022
3107.82; 2458.1324; 11865519.074929
3108.84; 2663.258; 11868230.156681
3109.86; 2916.2566; 11871198.780044
3110.88; 3213.7434; 11874470.23218
3111.89; 3540.8243; 11878074.638494
3112.91; 3871.518; 11882015.67672
3113.93; 4172.9807; 11886263.591034
3114.95; 4412.9265; 11890755.759828
3115.97; 4568.3469; 11895406.139882
3116.98; 4632.8543; 11900122.185602
3118.00; 4620.0889; 11904825.236736
3119.02; 4561.7062; 11909468.856837
3120.04; 4500.1685; 11914049.834227
3121.06; 4478.3032; 11918608.553674
3122.07; 4528.6895; 11923218.564179
3123.09; 4665.9653; 11927968.315545
3124.11; 4884.0882; 11932940.106535
3125.13; 5158.863; 11938191.606446
3126.15; 5454.3635; 11943743.913096
3127.16; 5730.8815; 11949577.703154
3128.18; 5952.0877; 11955636.671624
3129.20; 6090.0353; 11961836.064727
3130.22; 6127.9452; 11968074.048484
3131.24; 6061.687; 11974244.584226
3132.25; 5901.0066; 11980251.554279
3133.27; 5670.8137; 11986024.197893
3134.29; 5411.658; 11991533.032244
3135.31; 5177.6404; 11996803.646701
3136.33; 5030.074; 12001924.044931
3137.34; 5026.4751; 12007040.779679
3138.36; 5206.539; 12012340.811704
3139.38; 5578.7876; 12018019.776745
3140.40; 6112.552; 12024242.090955
3141.41; 6739.1996; 12031102.305374
3142.43; 7364.0355; 12038598.575732
3143.45; 7886.8572; 12046627.05603
3144.47; 8225.9671; 12055000.735597
3145.49; 8338.8004; 12063489.274571
3146.50; 8232.9379; 12071870.050075
3147.52; 7964.0296; 12079977.088581
3148.54; 7621.1254; 12087735.065373
3149.56; 7303.7037; 12095169.920529
3150.58; 7097.0079; 12102394.368324
3151.59; 7052.4237; 12109573.431307
3152.61; 7177.678; 12116879.997752
3153.63; 7438.457; 12124452.026031
3154.65; 7769.8023; 12132361.349466
3155.67; 8093.3872; 12140600.06839
3156.68; 8336.0125; 12149085.769434
3157.70; 8445.2608; 12157682.680458
3158.72; 8399.6543; 12166233.166102
3159.74; 8212.1842; 12174592.815234
3160.76; 7927.2598; 12182662.423628
3161.77; 7611.8954; 12190411.004717
3162.79; 7342.5025; 12197885.355467
3163.81; 7189.2641; 12205203.716071
3164.83; 7200.781; 12212533.800433
3165.85; 7392.2418; 12220058.783608
3166.86; 7740.3084; 12227938.083528
3167.88; 8186.8472; 12236271.940713
3168.90; 8651.5415; 12245078.836589
3169.92; 9050.8018; 12254292.162288
3170.94; 9318.1494; 12263777.636328
3171.95; 9420.3237; 12273367.119336
3172.97; 9364.333; 12282899.606266
3173.99; 9193.374; 12292258.064301
3175.01; 8973.1178; 12301392.310965
3176.03; 8773.0052; 12310322.85171
3177.04; 8648.6967; 12319126.851766
3178.06; 8631.0891; 12327912.928016
3179.08; 8724.6337; 12336794.228595
3180.10; 8914.1302; 12345868.42847
3181.12; 9176.1594; 12355209.362738
3182.13; 9490.0231; 12364869.796728
3183.15; 9843.9267; 12374890.489358
3184.17; 10234.684; 12385308.955735
3185.19; 10662.283; 12396162.699836
3186.20; 11122.892; 12407485.323745
3187.22; 11604.328; 12419298.02936
3188.24; 12086.615; 12431601.681489
3189.26; 12547.593; 12444374.589337
3190.28; 12971.011; 12457578.518431
3191.29; 13353.102; 12471171.399938
3192.31; 13704.144; 12485121.627002
3193.33; 14043.581; 12499417.386676
3194.35; 14390.12; 12514065.907454
3195.37; 14750.515; 12529081.295441
3196.38; 15111.603; 12544464.255292
3197.40; 15439.06; 12560180.551933
3198.42; 15683.92; 12576146.105822
3199.44; 15794.961; 12592224.694316
3200.46; 15732.89; 12608240.097167
3201.47; 15481.658; 12623999.757218
3202.49; 15053.323; 12639323.390741
3203.51; 14485.224; 12654068.723276
3204.53; 13830.85; 12668147.932064
3205.55; 13147.709; 12681531.73281
3206.56; 12486.058; 12694242.001522
3207.58; 11881.589; 12706336.946559
3208.60; 11353.371; 12717894.187916
3209.62; 10906.443; 12728996.475763
3210.64; 10537.052; 12739722.740194
3211.65; 10238.099; 12750144.683436
3212.67; 10002.867; 12760327.170491
3213.69; 9826.22; 12770329.838443
3214.71; 9703.6059; 12780207.69054
3215.73; 9628.9771; 12790009.573754
3216.74; 9592.9151; 12799774.747417
3217.76; 9581.8845; 12809528.692374
3218.78; 9578.9088; 12819279.608211
3219.80; 9565.3695; 12829016.741563
3220.82; 9523.2987; 12838711.048672
3221.83; 9437.5309; 12848318.047892
3222.85; 9297.2986; 12857782.296649
3223.87; 9097.1437; 12867042.796347
3224.89; 8837.2165; 12876038.701356
3225.91; 8523.0853; 12884714.834395
3226.92; 8165.1207; 12893026.574914
3227.94; 7777.4355; 12900943.668659
3228.96; 7376.3509; 12908452.475604
3229.98; 6978.4497; 12915556.236297
3231.00; 6598.4412; 12922273.164688
3232.01; 6247.2106; 12928632.555535
3233.03; 5930.4784; 12934669.526617
3234.05; 5648.4008; 12940419.354906
3235.07; 5396.2303; 12945912.484527
3236.08; 5165.8812; 12951171.128685
3237.10; 4948.018; 12956207.997468
3238.12; 4734.1665; 12961027.174705
3239.14; 4518.3757; 12965626.686209
3240.16; 4298.107; 12970001.973649
3241.17; 4074.2455; 12974149.379778
3242.19; 3850.3402; 12978068.859902
3243.21; 3631.3378; 12981765.405061
3244.23; 3422.1547; 12985249.010836
3245.25; 3226.4212; 12988533.368415
3246.26; 3045.6663; 12991633.72526
3247.28; 2879.0936; 12994564.518347
3248.30; 2723.971; 12997337.403284
3249.32; 2576.5183; 12999960.187746
3250.34; 2433.0713; 13002436.949321
3251.35; 2291.2273; 13004769.319817
3252.37; 2150.6759; 13006958.61506
3253.39; 2013.4842; 13009008.25511
3254.41; 1883.7395; 13010925.820592
3255.43; 1766.6182; 13012724.161685
3256.44; 1667.1088; 13014421.206517
3257.46; 1588.7117; 13016038.4465
3258.48; 1532.4509; 13017598.415388
3259.50; 1496.4435; 13019121.730316
3260.52; 1476.1202; 13020624.356964
3261.53; 1465.0139; 13022115.677872
3262.55; 1455.8967; 13023597.717894
3263.57; 1441.9786; 13025065.589929
3264.59; 1417.9046; 13026508.95567
3265.61; 1380.3778; 13027914.120654
3266.62; 1328.3577; 13029266.331452
3267.64; 1262.8932; 13030551.902231
3268.66; 1186.711; 13031759.922778
3269.68; 1103.6931; 13032883.434722
3270.70; 1018.343; 13033920.063914
3271.71; 935.28876; 13034872.147518
3272.73; 858.8348; 13035746.404279
3273.75; 792.55593; 13036553.192019
3274.77; 738.94313; 13037305.404235
3275.79; 699.13303; 13038017.091487
3276.80; 672.77485; 13038701.947253
3277.82; 658.08685; 13039371.851271
3278.84; 652.12835; 13040035.689795
3279.86; 651.26776; 13040698.65227
3280.87; 651.77694; 13041362.13307
3281.89; 650.44454; 13042024.257545
3282.91; 645.08736; 13042680.928644
3283.93; 634.85469; 13043327.183321
3284.95; 620.26143; 13043958.582689
3285.96; 602.94263; 13044572.352267
3286.98; 585.18147; 13045168.041755
3288.00; 569.31279; 13045747.577607
3289.02; 557.1335; 13046314.715464
3290.04; 549.4531; 13046874.03501
3291.05; 545.88892; 13047429.726372
3292.07; 544.95596; 13047984.468021
3293.09; 544.43094; 13048538.675223
3294.11; 541.90026; 13049090.306299
3295.13; 535.35192; 13049635.27145
3296.14; 523.65721; 13050168.331892
3297.16; 506.81637; 13050684.249089
3298.18; 485.90811; 13051178.882582
3299.20; 462.767; 13051649.959414
3300.22; 439.49031; 13052097.341582
3301.23; 417.92196; 13052522.768103
3302.25; 399.26044; 13052929.198004
3303.27; 383.8916; 13053319.983083
3304.29; 371.47096; 13053698.124492
3305.31; 361.20095; 13054065.811476
3306.32; 352.19185; 13054424.327585
3307.34; 343.77983; 13054774.280622
3308.36; 335.70291; 13055116.011694
3309.38; 328.09375; 13055449.996972
3310.40; 321.31501; 13055777.081783
3311.41; 315.7141; 13056098.465118
3312.43; 311.39515; 13056415.451948
3313.45; 308.09115; 13056729.075446
3314.47; 305.17878; 13057039.73428
3315.49; 301.82718; 13057346.981321
3316.50; 297.22838; 13057649.546981
3317.52; 290.8344; 13057945.603856
3318.54; 282.52801; 13058233.205181
3319.56; 272.67819; 13058510.779809
3320.58; 262.06758; 13058777.553294
3321.59; 251.7154; 13059033.788713
3322.61; 242.64634; 13059280.792216
3323.63; 235.66677; 13059520.690817
3324.65; 231.20386; 13059756.046365
3325.67; 229.24266; 13059989.4055
3326.68; 229.36873; 13060222.892974
3327.70; 230.89582; 13060457.934956
3328.72; 233.03782; 13060695.157401
3329.74; 235.0764; 13060934.455033
3330.75; 236.48214; 13061175.183643
3331.77; 236.96513; 13061416.403919
3332.79; 236.45493; 13061657.104832
3333.81; 235.03095; 13061896.356192
3334.83; 232.83681; 13062133.374014
3335.84; 230.01131; 13062367.515598
3336.86; 226.65627; 13062598.241901
3337.88; 222.84307; 13062825.08653
3338.90; 218.64257; 13063047.65523
3339.92; 214.15492; 13063265.655701
3340.93; 209.51867; 13063478.936663
3341.95; 204.89125; 13063687.507117
3342.97; 200.40944; 13063891.515282
3343.99; 196.14996; 13064091.187476
3345.01; 192.11303; 13064286.75025
3346.02; 188.24226; 13064478.372748
3347.04; 184.47753; 13064666.162917
3348.06; 180.82054; 13064850.230427
3349.08; 177.38293; 13065030.798591
3350.10; 174.38992; 13065208.320001
3351.11; 172.12757; 13065383.538438
3352.13; 170.84397; 13065557.450224
3353.15; 170.63554; 13065731.149839
3354.17; 171.36025; 13065905.58718
3355.19; 172.61498; 13066081.301776
3356.20; 173.79522; 13066258.21781
3357.22; 174.22775; 13066435.57414
3358.24; 173.34025; 13066612.027039
3359.26; 170.81656; 13066785.910923
3360.28; 166.68735; 13066955.591455
3361.29; 161.32525; 13067119.813599
3362.31; 155.34299; 13067277.946059
3363.33; 149.42516; 13067430.054422
3364.35; 144.14545; 13067576.788267
3365.37; 139.82599; 13067719.125086
3366.38; 136.48075; 13067858.056599
3367.40; 133.85664; 13067994.316877
3368.42; 131.55332; 13068128.232479
3369.44; 129.17793; 13068259.730043
3370.46; 126.4815; 13068388.48275
3371.47; 123.4334; 13068514.132625
3372.49; 120.21427; 13068636.505564
3373.51; 117.13668; 13068755.745652
3374.53; 114.52701; 13068872.329205
3375.54; 112.61179; 13068986.963148
3376.56; 111.44599; 13069100.410355
3377.58; 110.90199; 13069213.3038
3378.60; 110.71519; 13069326.007091
3379.62; 110.56365; 13069438.556116
3380.63; 110.15186; 13069550.685956
3381.65; 109.27324; 13069661.921397
3382.67; 107.8389; 13069771.696742
3383.69; 105.87492; 13069879.472837
3384.71; 103.50015; 13069984.831524
3385.72; 100.89854; 13070087.541879
3386.74; 98.294405; 13070187.601342
3387.76; 95.931207; 13070285.255171
3388.78; 94.04805; 13070380.992028
3389.80; 92.848207; 13070475.507495
3390.81; 92.459373; 13070569.627148
3391.83; 92.893626; 13070664.188851
3392.85; 94.021161; 13070759.898336
3393.87; 95.572041; 13070857.186549
3394.89; 97.173342; 13070956.104818
3395.90; 98.417633; 13071056.289722
3396.92; 98.947244; 13071157.013746
3397.94; 98.532094; 13071257.315166
3398.96; 97.119827; 13071356.178959
3399.98; 94.845109; 13071452.727187
3400.99; 91.997198; 13071546.376365
3402.01; 88.95646; 13071636.930203
3403.03; 86.117583; 13071724.594187
3404.05; 83.818032; 13071809.917326
3405.07; 82.285579; 13071893.680495
3406.08; 81.611324; 13071976.757301
3407.10; 81.747637; 13072059.972868
3408.12; 82.526064; 13072143.980839
3409.14; 83.68901; 13072229.17264
3410.16; 84.929818; 13072315.62753
3411.17; 85.937051; 13072403.107739
3412.19; 86.439109; 13072491.099022
3413.21; 86.244375; 13072578.892074
3414.23; 85.270949; 13072665.69422
3415.25; 83.559825; 13072750.754516
3416.26; 81.267283; 13072833.481104
3417.28; 78.636166; 13072913.529328
3418.30; 75.950753; 13072990.843917
3419.32; 73.484315; 13073065.647779
3420.34; 71.450591; 13073138.381398
3421.35; 69.969534; 13073209.607363
3422.37; 69.053979; 13073279.901334
3423.39; 68.618569; 13073349.752076
3424.41; 68.506989; 13073419.489235
3425.42; 68.529887; 13073489.249703
3426.44; 68.504456; 13073558.984283
3427.46; 68.28769; 13073628.498205
3428.48; 67.797977; 13073697.513621
3429.50; 67.022951; 13073765.740092
3430.51; 66.014442; 13073832.939945
3431.53; 64.873341; 13073898.978207
3432.55; 63.728072; 13073963.850635
3433.57; 62.710445; 13074027.687162
3434.59; 61.932335; 13074090.731607
3435.60; 61.466199; 13074153.301545
3436.62; 61.332045; 13074215.73492
3437.64; 61.492976; 13074278.332117
3438.66; 61.860533; 13074341.30347
3439.68; 62.30962; 13074404.731974
3440.69; 62.70092; 13074468.558805
3441.71; 62.906693; 13074532.595104
3442.73; 62.834572; 13074596.557987
3443.75; 62.443812; 13074660.123092
3444.77; 61.750011; 13074722.981939
3445.78; 60.817175; 13074784.891199
3446.80; 59.739485; 13074845.703417
3447.82; 58.618057; 13074905.374069
3448.84; 57.53932; 13074963.946614
3449.86; 56.560777; 13075021.523045
3450.87; 55.707207; 13075078.230578
3451.89; 54.97666; 13075134.194446
3452.91; 54.352411; 13075189.522854
3453.93; 53.815435; 13075244.304645
3454.95; 53.352616; 13075298.615306
3455.96; 52.958305; 13075352.524575
3456.98; 52.630011; 13075406.099655
3458.00; 52.361529; 13075459.401432
3459.02; 52.137595; 13075512.475254
3460.04; 51.93312; 13075565.340929
3461.05; 51.717579; 13075617.987193
3462.07; 51.462636; 13075670.373935
3463.09; 51.149524; 13075722.441943
3464.11; 50.772939; 13075774.126604
3465.13; 50.339964; 13075825.370515
3466.14; 49.864967; 13075876.1309
3467.16; 49.363345; 13075926.380655
3468.18; 48.847479; 13075976.105281
3469.20; 48.327015; 13076025.300097
3470.21; 47.813236; 13076073.971908
3471.23; 47.324884; 13076122.146598
3472.25; 46.891514; 13076169.880136
3473.27; 46.551019; 13076217.267065
3474.29; 46.340288; 13076264.439478
3475.30; 46.281106; 13076311.551647
3476.32; 46.366134; 13076358.750371
3477.34; 46.550811; 13076406.137088
3478.36; 46.755784; 13076453.732459
3479.38; 46.881163; 13076501.45546
3480.39; 46.829694; 13076549.126068
3481.41; 46.532352; 13076596.493994
3482.43; 45.968345; 13076643.287786
3483.45; 45.17272; 13076689.271665
3484.47; 44.22859; 13076734.294461
3485.48; 43.246009; 13076778.317032
3486.50; 42.334121; 13076821.41134
3487.52; 41.57557; 13076863.733476
3488.54; 41.011364; 13076905.481275
3489.56; 40.640584; 13076946.851636
3490.57; 40.433903; 13076988.011605
3491.59; 40.354743; 13077029.090991
3492.61; 40.379161; 13077070.195235
3493.63; 40.506251; 13077111.428851
3494.65; 40.754793; 13077152.915471
3495.66; 41.14771; 13077194.802065
3496.68; 41.69109; 13077237.241795
3497.70; 42.357178; 13077280.359575
3498.72; 43.079537; 13077324.212684
3499.74; 43.763885; 13077368.76243
3500.75; 44.311859; 13077413.869991
3501.77; 44.649443; 13077459.321197
3502.79; 44.749503; 13077504.87426
3503.81; 44.639659; 13077550.315506
3504.83; 44.392073; 13077595.50472
3505.84; 44.098484; 13077640.395075
3506.86; 43.839391; 13077685.021682
3507.88; 43.658403; 13077729.464053
3508.90; 43.550669; 13077773.796754
3509.92; 43.468797; 13077818.046114
3510.93; 43.343084; 13077862.167504
3511.95; 43.107738; 13077906.04932
3512.97; 42.723077; 13077949.539569
3513.99; 42.186051; 13077992.483148
3515.00; 41.526557; 13078034.755392
3516.02; 40.79296; 13078076.280865
3517.04; 40.034263; 13078117.034017
3518.06; 39.287172; 13078157.026663
3519.08; 38.573444; 13078196.292764
3520.09; 37.907832; 13078234.881302
3521.11; 37.311787; 13078272.863091
3522.13; 36.825054; 13078310.349407
3523.15; 36.507698; 13078347.512668
3524.17; 36.428874; 13078384.595689
3525.18; 36.644254; 13078421.897958
3526.20; 37.169315; 13078459.734717
3527.22; 37.958472; 13078498.374804
3528.24; 38.899102; 13078537.972411
3529.26; 39.825102; 13078578.512647
3530.27; 40.548218; 13078619.788982
3531.29; 40.899227; 13078661.42263
3532.31; 40.7675; 13078702.922186
3533.33; 40.127577; 13078743.770329
3534.35; 39.045318; 13078783.516778
3535.36; 37.66241; 13078821.855486
3536.38; 36.164407; 13078858.669292
3537.40; 34.74184; 13078894.034986
3538.42; 33.554984; 13078928.192512
3539.44; 32.710459; 13078961.490347
3540.45; 32.253107; 13078994.322618
3541.47; 32.171584; 13079027.071902
3542.49; 32.412411; 13079060.066337
3543.51; 32.896243; 13079093.553293
3544.53; 33.531592; 13079127.687007
3545.54; 34.224235; 13079162.525802
3546.56; 34.883454; 13079198.035652
3547.58; 35.427725; 13079234.099548
3548.60; 35.791932; 13079270.53419
3549.62; 35.936106; 13079307.115595
3550.63; 35.853237; 13079343.612643
3551.65; 35.572332; 13079379.823742
3552.67; 35.153405; 13079415.608392
3553.69; 34.67363; 13079450.904651
3554.71; 34.20732; 13079485.726227
3555.72; 33.805387; 13079520.138652
3556.74; 33.481038; 13079554.220904
3557.76; 33.207032; 13079588.02423
3558.78; 32.926192; 13079621.541672
3559.80; 32.572386; 13079654.698955
3560.81; 32.095416; 13079687.370703
3561.83; 31.481627; 13079719.417641
3562.85; 30.763259; 13079750.733312
3563.87; 30.013108; 13079781.28536
3564.88; 29.325844; 13079811.137804
3565.90; 28.791645; 13079840.446457
3566.92; 28.470331; 13079869.428025
3567.94; 28.374068; 13079898.311602
3568.96; 28.464144; 13079927.286872
3569.97; 28.663019; 13079956.464589
3570.99; 28.878241; 13079985.861391
3572.01; 29.031185; 13080015.413885
3573.03; 29.081986; 13080045.018092
3574.05; 29.042933; 13080074.582544
3575.06; 28.975791; 13080104.078649
3576.08; 28.973112; 13080133.572026
3577.10; 29.128382; 13080163.223462
3578.12; 29.503441; 13080193.256692
3579.14; 30.102871; 13080223.900115
3580.15; 30.863525; 13080255.317852
3581.17; 31.663261; 13080287.549685
3582.19; 32.347409; 13080320.477951
3583.21; 32.766139; 13080353.832467
3584.23; 32.812359; 13080387.234032
3585.24; 32.449315; 13080420.266035
3586.26; 31.719947; 13080452.555572
3587.28; 30.735429; 13080483.842912
3588.30; 29.646562; 13080514.021833
3589.32; 28.606726; 13080543.142245
3590.33; 27.737351; 13080571.377671
3591.35; 27.105541; 13080598.969943
3592.37; 26.719163; 13080626.168898
3593.39; 26.538906; 13080653.184359
3594.41; 26.501511; 13080680.161754
3595.42; 26.545386; 13080707.183812
3596.44; 26.62998; 13080734.291982
3597.46; 26.743392; 13080761.515602
3598.48; 26.897383; 13080788.895977
3599.50; 27.11347; 13080816.496319
3600.51; 27.406567; 13080844.395021
3601.53; 27.772758; 13080872.666491
3602.55; 28.185533; 13080901.358148
3603.57; 28.601179; 13080930.472914
3604.59; 28.970529; 13080959.963662
3605.60; 29.252178; 13080989.741116
3606.62; 29.422261; 13081019.691709
3607.64; 29.477737; 13081049.698773
3608.66; 29.432901; 13081079.660196
3609.67; 29.31145; 13081109.497987
3610.69; 29.137717; 13081139.158926
3611.71; 28.930492; 13081168.608918
3612.73; 28.701198; 13081197.825499
3613.75; 28.456093; 13081226.792573
3614.76; 28.200445; 13081255.49941
3615.78; 27.941993; 13081283.943153
3616.80; 27.691687; 13081312.132096
3617.82; 27.461248; 13081340.086461
3618.84; 27.25879; 13081367.834733
3619.85; 27.084848; 13081395.405939
3620.87; 26.93117; 13081422.820708
3621.89; 26.783521; 13081450.085177
3622.91; 26.628011; 13081477.191343
3623.93; 26.458808; 13081504.125268
3624.94; 26.28417; 13081530.881419
3625.96; 26.127946; 13081557.478541
3626.98; 26.025088; 13081583.970957
3628.00; 26.011691; 13081610.449736
3629.02; 26.112137; 13081637.030765
3630.03; 26.327215; 13081663.830733
3631.05; 26.627301; 13081690.936177
3632.07; 26.953531; 13081718.373709
3633.09; 27.227812; 13081746.090446
3634.11; 27.369912; 13081773.951835
3635.12; 27.317614; 13081801.759988
3636.14; 27.044571; 13081829.290194
3637.16; 26.570614; 13081856.337933
3638.18; 25.960937; 13081882.765047
3639.20; 25.313383; 13081908.532979
3640.21; 24.736391; 13081933.713558
3641.23; 24.323005; 13081958.473327
3642.25; 24.127844; 13081983.034431
3643.27; 24.153477; 13082007.621628
3644.29; 24.350294; 13082032.409177
3645.30; 24.630217; 13082057.481675
3646.32; 24.890623; 13082082.819256
3647.34; 25.041822; 13082108.31075
3648.36; 25.030338; 13082133.790554
3649.38; 24.851521; 13082159.08833
3650.39; 24.548199; 13082184.077337
3651.41; 24.19625; 13082208.708076
3652.43; 23.881751; 13082233.018668
3653.45; 23.676584; 13082257.120408
3654.47; 23.619445; 13082281.163984
3655.48; 23.707167; 13082305.296857
3656.50; 23.897956; 13082329.623946
3657.52; 24.124644; 13082354.181792
3658.54; 24.313489; 13082378.931875
3659.55; 24.403044; 13082403.773121
3660.57; 24.358301; 13082428.568821
3661.59; 24.177217; 13082453.180184
3662.61; 23.889116; 13082477.498274
3663.63; 23.546566; 13082501.467661
3664.64; 23.213541; 13082525.098044
3665.66; 22.953017; 13082548.463225
3666.68; 22.816471; 13082571.689408
3667.70; 22.836798; 13082594.936283
3668.72; 23.024999; 13082618.374738
3669.73; 23.370239; 13082642.164632
3670.75; 23.842438; 13082666.435205
3671.77; 24.396593; 13082691.269885
3672.79; 24.978228; 13082716.696643
3673.81; 25.529626; 13082742.684701
3674.82; 25.996562; 13082769.148079
3675.84; 26.335099; 13082795.956073
3676.86; 26.517673; 13082822.94992
3677.88; 26.53737; 13082849.963818
3678.90; 26.409228; 13082876.847272
3679.91; 26.167747; 13082903.48491
3680.93; 25.860624; 13082929.809909
3681.95; 25.539765; 13082955.808288
3682.97; 25.251666; 13082981.513394
3683.99; 25.029596; 13083006.992443
3685.00; 24.889705; 13083032.329088
3686.02; 24.831897; 13083057.606888
3687.04; 24.844725; 13083082.897746
3688.06; 24.912073; 13083108.257162
3689.08; 25.018783; 13083133.725204
3690.09; 25.152924; 13083159.329796
3691.11; 25.303994; 13083185.08817
3692.13; 25.458364; 13083211.003686
3693.15; 25.594825; 13083237.058113
3694.17; 25.683463; 13083263.20277
3695.18; 25.689882; 13083289.353961
3696.20; 25.58453; 13083315.397908
3697.22; 25.354304; 13083341.207495
3698.24; 25.012013; 13083366.668646
3699.26; 24.599331; 13083391.709703
3700.27; 24.180832; 13083416.324746
3701.29; 23.829866; 13083440.582521
3702.31; 23.610161; 13083464.616647
3703.33; 23.558982; 13083488.598674
3704.34; 23.677409; 13083512.701255
3705.36; 23.931051; 13083537.062032
3706.38; 24.260932; 13083561.758614
3707.40; 24.600848; 13083586.801216
3708.42; 24.895434; 13083612.143693
3709.43; 25.11324; 13083637.707888
3710.45; 25.25117; 13083663.412489
3711.47; 25.329865; 13083689.197198
3712.49; 25.382651; 13083715.035642
3713.51; 25.442527; 13083740.935036
3714.52; 25.53173; 13083766.925236
3715.54; 25.656869; 13083793.042821
3716.56; 25.810264; 13083819.316556
3717.58; 25.97591; 13083845.758912
3718.60; 26.137218; 13083872.365472
3719.61; 26.283571; 13083899.121012
3720.63; 26.413731; 13083926.009051
3721.65; 26.535452; 13083953.020996
3722.67; 26.661961; 13083980.161721
3723.69; 26.806689; 13084007.449774
3724.70; 26.977837; 13084034.912047
3725.72; 27.17412; 13084062.574129
3726.74; 27.382736; 13084090.448573
3727.76; 27.58018; 13084118.524006
3728.78; 27.736197; 13084146.758258
3729.79; 27.820581; 13084175.078409
3730.81; 27.811763; 13084203.389584
3731.83; 27.70528; 13084231.592364
3732.85; 27.519564; 13084259.606093
3733.87; 27.29655; 13084287.392803
3734.88; 27.095585; 13084314.974939
3735.90; 26.981001; 13084342.440433
3736.92; 27.005964; 13084369.93134
3737.94; 27.197025; 13084397.616738
3738.96; 27.544375; 13084425.655723
3739.97; 28.001638; 13084454.160182
3740.99; 28.496346; 13084483.168233
3742.01; 28.948756; 13084512.636817
3743.03; 29.293671; 13084542.45651
3744.05; 29.498513; 13084572.484723
3745.06; 29.571755; 13084602.587494
3746.08; 29.558765; 13084632.677041
3747.10; 29.526255; 13084662.733494
3748.12; 29.540309; 13084692.804254
3749.14; 29.645198; 13084722.981787
3750.15; 29.849847; 13084753.367643
3751.17; 30.126242; 13084784.034857
3752.19; 30.41991; 13084815.001013
3753.21; 30.668642; 13084846.220367
3754.22; 30.822935; 13084877.596785
3755.24; 30.861385; 13084909.012344
3756.26; 30.796216; 13084940.361563
3757.28; 30.667665; 13084971.579923
3758.30; 30.52967; 13085002.657809
3759.31; 30.432012; 13085033.636284
3760.33; 30.404901; 13085064.587161
3761.35; 30.450823; 13085095.584785
3762.37; 30.545886; 13085126.679179
3763.39; 30.649777; 13085157.87933
3764.40; 30.720887; 13085189.151867
3765.42; 30.731756; 13085220.435469
3766.44; 30.680154; 13085251.666542
3767.46; 30.592519; 13085282.808406
3768.48; 30.518754; 13085313.87518
3769.49; 30.519752; 13085344.942971
3770.51; 30.651048; 13085376.144415
3771.53; 30.947017; 13085407.647143
3772.55; 31.410053; 13085439.621222
3773.57; 32.007867; 13085472.203849
3774.58; 32.679986; 13085505.470665
3775.60; 33.351935; 13085539.421495
3776.62; 33.953343; 13085573.984533
3777.64; 34.434871; 13085609.037746
3778.66; 34.779055; 13085644.441324
3779.67; 35.001877; 13085680.071723
3780.69; 35.144785; 13085715.847598
3781.71; 35.260022; 13085751.74078
3782.73; 35.394356; 13085787.770707
3783.75; 35.576878; 13085823.986433
3784.76; 35.814964; 13085860.444521
3785.78; 36.099387; 13085897.192139
3786.80; 36.415951; 13085934.262006
3787.82; 36.758395; 13085971.680466
3788.84; 37.136633; 13086009.483956
3789.85; 37.576179; 13086047.734884
3790.87; 38.108148; 13086086.527335
3791.89; 38.753179; 13086125.976399
3792.91; 39.505476; 13086166.191268
3793.93; 40.323629; 13086207.238983
3794.94; 41.132761; 13086249.110358
3795.96; 41.838501; 13086291.700147
3796.98; 42.348962; 13086334.809563
3798.00; 42.597819; 13086378.172304
3799.01; 42.561063; 13086421.49763
3800.03; 42.26215; 13086464.518675
3801.05; 41.764243; 13086507.032873
3802.07; 41.152623; 13086548.924467
3803.09; 40.513349; 13086590.165308
3804.10; 39.915022; 13086630.797078
3805.12; 39.398763; 13086670.903319
3806.14; 38.97821; 13086710.581455
3807.16; 38.647712; 13086749.923158
3808.18; 38.394354; 13086789.006954
3809.19; 38.208799; 13086827.901863
3810.21; 38.091101; 13086866.67696
3811.23; 38.050091; 13086905.410311
3812.25; 38.097435; 13086944.191856
3813.27; 38.239239; 13086983.117751
3814.28; 38.468549; 13087022.277075
3815.30; 38.761382; 13087061.734489
3816.32; 39.077575; 13087101.513774
3817.34; 39.366318; 13087141.586987
3818.36; 39.575185; 13087181.872818
3819.37; 39.660985; 13087222.245989
3820.39; 39.600525; 13087262.557614
3821.41; 39.399278; 13087302.664379
3822.43; 39.095886; 13087342.462304
3823.45; 38.760518; 13087381.918838
3824.46; 38.485751; 13087421.095672
3825.48; 38.370057; 13087460.154734
3826.50; 38.496072; 13087499.342075
3827.52; 38.908109; 13087538.948851
3828.54; 39.594838; 13087579.254688
3829.55; 40.483018; 13087620.464654
3830.57; 41.445962; 13087662.654854
3831.59; 42.32658; 13087705.741487
3832.61; 42.970336; 13087749.483434
3833.63; 43.25986; 13087793.520105
3834.64; 43.14178; 13087837.436576
3835.66; 42.638079; 13087880.8403
3836.68; 41.838743; 13087923.430335
3837.70; 40.878074; 13087965.042451
3838.72; 39.901884; 13088005.660847
3839.73; 39.035242; 13088045.397039
3840.75; 38.359521; 13088084.445376
3841.77; 37.903829; 13088123.029839
3842.79; 37.650799; 13088161.356727
3843.81; 37.5523; 13088199.583348
3844.82; 37.548335; 13088237.805933
3845.84; 37.582907; 13088276.06371
3846.86; 37.613406; 13088314.352535
3847.88; 37.613508; 13088352.641463
3848.89; 37.572222; 13088390.888364
3849.91; 37.492361; 13088429.05397
3850.93; 37.390395; 13088467.115778
3851.95; 37.297309; 13088505.082829
3852.97; 37.258119; 13088543.009987
3853.98; 37.327388; 13088581.007657
3855.00; 37.559601; 13088619.24171
3856.02; 37.996095; 13088657.920096
3857.04; 38.652732; 13088697.266909
3858.06; 39.513446; 13088737.489892
3859.07; 40.533265; 13088778.751007
3860.09; 41.650957; 13088821.149884
3861.11; 42.807346; 13088864.725916
3862.13; 43.962562; 13088909.477906
3863.15; 45.105265; 13088955.39312
3864.16; 46.249647; 13089002.473265
3865.18; 47.420707; 13089050.745498
3866.20; 48.633083; 13089100.251878
3867.22; 49.871636; 13089151.019051
3868.24; 51.081691; 13089203.018008
3869.25; 52.173525; 13089256.128406
3870.27; 53.040516; 13089310.121362
3871.29; 53.585458; 13089364.669045
3872.31; 53.746676; 13089419.380842
3873.33; 53.515819; 13089473.857637
3874.34; 52.942236; 13089527.750549
3875.36; 52.123399; 13089580.809919
3876.38; 51.185134; 13089632.914177
3877.40; 50.25794; 13089684.074591
3878.42; 49.455879; 13089734.418541
3879.43; 48.862597; 13089784.158556
3880.45; 48.526129; 13089833.556062
3881.47; 48.461375; 13089882.88765
3882.49; 48.657451; 13089932.418836
3883.51; 49.086715; 13089982.386994
3884.52; 49.712915; 13090032.992597
3885.54; 50.496979; 13090084.396342
3886.56; 51.399989; 13090136.719313
3887.58; 52.383595; 13090190.043553
3888.60; 53.408554; 13090244.411156
3889.61; 54.432427; 13090299.821018
3890.63; 55.407747; 13090356.223713
3891.65; 56.282091; 13090413.516453
3892.67; 57.001221; 13090471.541237
3893.68; 57.515616; 13090530.089652
3894.70; 57.789487; 13090588.916856
3895.72; 57.810052; 13090647.764994
3896.74; 57.594157; 13090706.393361
3897.76; 57.18964; 13090764.609947
3898.77; 56.670195; 13090822.29776
3899.79; 56.124558; 13090879.430138
3900.81; 55.642644; 13090936.071948
3901.83; 55.30219; 13090992.367191
3902.85; 55.159012; 13091048.516685
3903.86; 55.24237; 13091104.751034
3904.88; 55.554988; 13091161.303614
3905.90; 56.075838; 13091218.386397
3906.92; 56.76356; 13091276.169251
3907.94; 57.559433; 13091334.76227
3908.95; 58.390364; 13091394.201141
3909.97; 59.173593; 13091454.437305
3910.99; 59.824773; 13091515.336342
3912.01; 60.269672; 13091576.688267
3913.03; 60.457545; 13091638.231439
3914.04; 60.372405; 13091699.687942
3915.06; 60.03814; 13091760.804178
3916.08; 59.515157; 13091821.388039
3917.10; 58.889395; 13091881.334902
3918.12; 58.25786; 13091940.638889
3919.13; 57.716415; 13091999.391709
3920.15; 57.35451; 13092057.776126
3921.17; 57.257802; 13092116.062098
3922.19; 57.514773; 13092174.609655
3923.21; 58.2198; 13092233.874899
3924.22; 59.464829; 13092294.407529
3925.24; 61.31574; 13092356.824306
3926.26; 63.776702; 13092421.746237
3927.28; 66.753561; 13092489.698481
3928.30; 70.032061; 13092560.988098
3929.31; 73.285712; 13092635.58979
3930.33; 76.12058; 13092713.077256
3931.35; 78.152057; 13092792.632677
3932.37; 79.095913; 13092873.148904
3933.39; 78.847538; 13092953.412296
3934.40; 77.523058; 13093032.327424
3935.42; 75.445131; 13093109.127311
3936.44; 73.072324; 13093183.511784
3937.46; 70.889006; 13093255.673733
3938.48; 69.286372; 13093326.20427
3939.49; 68.469592; 13093395.90336
3940.51; 68.419068; 13093465.551018
3941.53; 68.917386; 13093535.705943
3942.55; 69.633022; 13093606.589354
3943.56; 70.234016; 13093678.084552
3944.58; 70.495662; 13093749.846094
3945.60; 70.368777; 13093821.478473
3946.62; 69.988371; 13093892.723615
3947.64; 69.62193; 13093963.595735
3948.65; 69.575624; 13094034.420718
3949.67; 70.089248; 13094105.768548
3950.69; 71.252888; 13094178.300913
3951.71; 72.970038; 13094252.581263
3952.73; 74.976261; 13094328.903861
3953.74; 76.905204; 13094407.19004
3954.76; 78.380196; 13094486.977698
3955.78; 79.103941; 13094567.502096
3956.80; 78.921983; 13094647.841268
3957.82; 77.845755; 13094727.084888
3958.83; 76.034268; 13094804.484491
3959.85; 73.745265; 13094879.553989
3960.87; 71.273484; 13094952.10732
3961.89; 68.894036; 13095022.238476
3962.91; 66.823703; 13095090.262122
3963.92; 65.204681; 13095156.637673
3964.94; 64.107341; 13095221.896181
3965.96; 63.543527; 13095286.580749
3966.98; 63.481148; 13095351.201818
3968.00; 63.853975; 13095416.202409
3969.01; 64.56562; 13095481.927424
3970.03; 65.491488; 13095548.594932
3971.05; 66.484698; 13095616.273486
3972.07; 67.39083; 13095684.874443
3973.09; 68.072237; 13095754.169043
3974.10; 68.437317; 13095823.835278
3975.12; 68.465955; 13095893.530666
3976.14; 68.221167; 13095962.976869
3977.16; 67.839828; 13096032.034887
3978.18; 67.501516; 13096100.748517
3979.19; 67.381987; 13096169.340472
3980.21; 67.603952; 13096238.158378
3981.23; 68.200162; 13096307.5832
3982.25; 69.101149; 13096377.925188
3983.27; 70.152818; 13096449.337729
3984.28; 71.159627; 13096521.775159
3985.30; 71.940481; 13096595.007464
3986.32; 72.379843; 13096668.687021
3987.34; 72.457651; 13096742.445782
3988.35; 72.248351; 13096815.991486
3989.37; 71.889567; 13096889.171963
3990.39; 71.531115; 13096961.987552
3991.41; 71.281825; 13097034.549374
3992.43; 71.17234; 13097106.999745
3993.44; 71.146665; 13097179.42398
3994.46; 71.085312; 13097251.78576
3995.48; 70.852031; 13097323.91007
3996.50; 70.348; 13097395.521298
3997.52; 69.554758; 13097466.325041
3998.53; 68.550944; 13097536.106943
3999.55; 67.496735; 13097604.815707
4000.57; 66.590609; 13097672.602074
4001.59; 66.012167; 13097739.799612
4002.61; 65.869179; 13097806.851593
4003.62; 66.165453; 13097874.205169
4004.64; 66.799275; 13097942.203949
4005.66; 67.592371; 13098011.010066
4006.68; 68.339902; 13098080.577137
4007.70; 68.865823; 13098150.679573
4008.71; 69.066893; 13098220.98669
4009.73; 68.93279; 13098291.157295
4010.75; 68.53765; 13098360.925665
4011.77; 68.007392; 13098430.154256
4012.79; 67.474439; 13098498.840323
4013.80; 67.03487; 13098567.078929
4014.82; 66.721587; 13098634.998625
4015.84; 66.501386; 13098702.694167
4016.86; 66.29576; 13098770.180389
4017.88; 66.01739; 13098837.383243
4018.89; 65.609161; 13098904.170538
4019.91; 65.071716; 13098970.410738
4020.93; 64.469406; 13099036.037811
4021.95; 63.911726; 13099101.09719
4022.97; 63.515626; 13099165.753357
4023.98; 63.36076; 13099230.251877
4025.00; 63.452606; 13099294.843891
4026.02; 63.706366; 13099359.694222
4027.04; 63.958402; 13099424.801116
4028.06; 64.003451; 13099489.953868
4029.07; 63.647856; 13099554.744639
4030.09; 62.763985; 13099618.635667
4031.11; 61.330409; 13099681.067377
4032.13; 59.446417; 13099741.581263
4033.15; 57.316587; 13099799.927075
4034.16; 55.209341; 13099856.127803
4035.18; 53.400127; 13099910.486827
4036.20; 52.113477; 13099963.536098
4037.22; 51.47794; 13100015.938419
4038.23; 51.504093; 13100068.367363
4039.25; 52.089901; 13100121.392634
4040.27; 53.051015; 13100175.396278
4041.29; 54.167874; 13100230.536836
4042.31; 55.237754; 13100286.766486
4043.32; 56.118936; 13100343.893142
4044.34; 56.756163; 13100401.668467
4045.36; 57.181105; 13100459.876364
4046.38; 57.487934; 13100518.3966
4047.40; 57.790844; 13100577.225185
4048.41; 58.175764; 13100636.445603
4049.43; 58.660948; 13100696.159916
4050.45; 59.179333; 13100756.401923
4051.47; 59.589689; 13100817.061656
4052.49; 59.714825; 13100877.84877
4053.50; 59.396164; 13100938.311503
4054.52; 58.547847; 13100997.910684
4055.54; 57.192476; 13101056.130157
4056.56; 55.465708; 13101112.591855
4057.58; 53.586605; 13101167.140707
4058.59; 51.801984; 13101219.872891
4059.61; 50.321933; 13101271.098448
4060.63; 49.266874; 13101321.249999
4061.65; 48.64273; 13101370.766199
4062.67; 48.351145; 13101419.985579
4063.68; 48.229727; 13101469.08136
4064.70; 48.107366; 13101518.052582
4065.72; 47.855375; 13101566.767289
4066.74; 47.418038; 13101615.036805
4067.76; 46.814671; 13101662.69212
4068.77; 46.11623; 13101709.636452
4069.79; 45.408318; 13101755.860161
4070.81; 44.756107; 13101801.419947
4071.83; 44.183957; 13101846.397308
4072.85; 43.675112; 13101890.856687
4073.86; 43.188061; 13101934.82027
4074.88; 42.679804; 13101978.266468
4075.90; 42.124779; 13102021.147675
4076.92; 41.521848; 13102063.415125
4077.94; 40.888408; 13102105.03776
4078.95; 40.247194; 13102146.007666
4079.97; 39.614509; 13102186.333526
4080.99; 38.997204; 13102226.030998
4082.01; 38.400435; 13102265.120984
4083.02; 37.841757; 13102303.642259
4084.04; 37.362761; 13102341.675938
4085.06; 37.029395; 13102379.370264
4086.08; 36.916778; 13102416.94995
4087.10; 37.081741; 13102454.697563
4088.11; 37.533167; 13102492.904707
4089.13; 38.213263; 13102531.80416
4090.15; 39.000357; 13102571.50484
4091.17; 39.736251; 13102611.954629
4092.19; 40.271525; 13102652.949304
4093.20; 40.514141; 13102694.190952
4094.22; 40.463922; 13102735.381478
4095.24; 40.219199; 13102776.322887
4096.26; 39.95118; 13102816.991465
4097.28; 39.85293; 13102857.560027
4098.29; 40.079145; 13102898.358868
4099.31; 40.696501; 13102939.78615
4100.33; 41.660966; 13102982.195215
4101.35; 42.82928; 13103025.793574
4102.37; 44.000226; 13103070.583905
4103.38; 44.971509; 13103116.36296
4104.40; 45.593557; 13103162.775234
4105.42; 45.803645; 13103209.401368
4106.44; 45.631433; 13103255.852198
4107.46; 45.177208; 13103301.840646
4108.47; 44.573068; 13103347.214106
4109.49; 43.941898; 13103391.945061
4110.51; 43.367989; 13103436.091803
4111.53; 42.887363; 13103479.749287
4112.55; 42.497834; 13103523.010249
4113.56; 42.181731; 13103565.94943
4114.58; 41.930409; 13103608.632777
4115.60; 41.760446; 13103651.14311
4116.62; 41.715772; 13103693.607966
4117.64; 41.856118; 13103736.215688
4118.65; 42.237472; 13103779.211612
4119.67; 42.892779; 13103822.87461
4120.69; 43.820307; 13103867.481791
4121.71; 44.983413; 13103913.272964
4122.73; 46.320709; 13103960.425447
4123.74; 47.761708; 13104009.044804
4124.76; 49.241367; 13104059.170391
4125.78; 50.708072; 13104110.789019
4126.80; 52.122775; 13104163.847755
4127.82; 53.4509; 13104218.258465
4128.83; 54.651652; 13104273.891488
4129.85; 55.670378; 13104330.561531
4130.87; 56.438394; 13104388.013381
4131.89; 56.881719; 13104445.916516
4132.90; 56.936721; 13104503.875641
4133.92; 56.568009; 13104561.459433
4134.94; 55.782921; 13104618.244039
4135.96; 54.637984; 13104673.863149
4136.98; 53.235108; 13104728.054192
4137.99; 51.70832; 13104780.69103
4139.01; 50.204301; 13104831.796842
4140.03; 48.861315; 13104881.535552
4141.05; 47.790971; 13104930.184698
4142.07; 47.066016; 13104978.095871
4143.08; 46.715543; 13105025.650278
4144.10; 46.727315; 13105073.216669
4145.12; 47.05568; 13105121.11732
4146.14; 47.633; 13105169.605658
4147.16; 48.382389; 13105218.856842
4148.17; 49.229709; 13105268.970562
4149.19; 50.113062; 13105319.983496
4150.21; 50.988396; 13105371.887483
4151.23; 51.830527; 13105424.648723
4152.25; 52.629771; 13105478.223559
4153.26; 53.385519; 13105532.567713
4154.28; 54.098934; 13105587.638093
4155.30; 54.767242; 13105643.388782
4156.32; 55.381431; 13105699.76469
4157.34; 55.927711; 13105756.696687
4158.35; 56.391367; 13105814.100665
4159.37; 56.760436; 13105871.880339
4160.39; 57.026684; 13105929.931043
4161.41; 57.18284; 13105988.140707
4162.43; 57.217532; 13106046.385685
4163.44; 57.111627; 13106104.522858
4164.46; 56.840489; 13106162.384023
4165.48; 56.385108; 13106219.78163
4166.50; 55.751294; 13106276.534042
4167.52; 54.991408; 13106332.512922
4168.53; 54.219492; 13106387.706026
4169.55; 53.610199; 13106442.278895
4170.57; 53.375548; 13106496.612899
4171.59; 53.720769; 13106551.298324
4172.61; 54.788877; 13106607.071036
4173.62; 56.610079; 13106664.697653
4174.64; 59.073557; 13106724.831985
4175.66; 61.934366; 13106787.878497
4176.68; 64.858007; 13106853.90115
4177.69; 67.49301; 13106922.606121
4178.71; 69.551825; 13106993.406878
4179.73; 70.876425; 13107065.55602
4180.75; 71.469062; 13107138.308441
4181.77; 71.479451; 13107211.071437
4182.78; 71.153633; 13107283.502765
4183.80; 70.76188; 13107355.535306
4184.82; 70.528841; 13107427.330622
4185.84; 70.586757; 13107499.184895
4186.86; 70.962957; 13107571.422123
4187.87; 71.599972; 13107644.307805
4188.89; 72.395343; 13107718.00314
4189.91; 73.242883; 13107792.561234
4190.93; 74.059431; 13107867.95054
4191.95; 74.789681; 13107944.083207
4192.96; 75.392576; 13108020.829597
4193.98; 75.821281; 13108098.012389
4195.00; 76.011294; 13108175.388606
4196.02; 75.886879; 13108252.638174
4197.04; 75.386627; 13108329.378507
4198.05; 74.49883; 13108405.215102
4199.07; 73.290931; 13108479.822107
4200.09; 71.91759; 13108553.03111
4201.11; 70.599084; 13108624.89793
4202.13; 69.573043; 13108695.720286
4203.14; 69.03351; 13108765.99342
4204.16; 69.077379; 13108836.311211
4205.18; 69.676952; 13108907.239341
4206.20; 70.688832; 13108979.197521
4207.22; 71.896891; 13109052.385454
4208.23; 73.075213; 13109126.772867
4209.25; 74.050126; 13109202.152701
4210.27; 74.741249; 13109278.236066
4211.29; 75.169219; 13109354.755088
4212.31; 75.429731; 13109431.539299
4213.32; 75.644917; 13109508.542561
4214.34; 75.910199; 13109585.815868
4215.36; 76.255063; 13109663.440232
4216.38; 76.630233; 13109741.446503
4217.40; 76.923897; 13109819.75171
4218.41; 76.99977; 13109898.134154
4219.43; 76.743187; 13109976.255407
4220.45; 76.099991; 13110053.721914
4221.47; 75.09665; 13110130.167063
4222.49; 73.836879; 13110205.329819
4223.50; 72.477448; 13110279.108733
4224.52; 71.191439; 13110351.578546
4225.54; 70.12952; 13110422.967371
4226.56; 69.388886; 13110493.602262
4227.57; 68.996248; 13110563.837466
4228.59; 68.907102; 13110633.981922
4229.61; 69.019705; 13110704.241004
4230.63; 69.199436; 13110774.683044
4231.65; 69.307749; 13110845.235342
4232.66; 69.229598; 13110915.708085
4233.68; 68.893908; 13110985.839111
4234.70; 68.283291; 13111055.348555
4235.72; 67.431666; 13111123.991081
4236.74; 66.411428; 13111191.59505
4237.75; 65.314591; 13111258.082484
4238.77; 64.234043; 13111323.469969
4239.79; 63.250795; 13111387.856549
4240.81; 62.430591; 13111451.408197
4241.83; 61.829217; 13111514.347671
4242.84; 61.501632; 13111576.953679
4243.86; 61.507583; 13111639.565744
4244.88; 61.907019; 13111702.584419
4245.90; 62.742706; 13111766.453786
4246.92; 64.013574; 13111831.616843
4247.93; 65.648243; 13111898.443921
4248.95; 67.491033; 13111967.14688
4249.97; 69.310828; 13112037.702312
4250.99; 70.836401; 13112109.810712
4252.01; 71.812342; 13112182.912577
4253.02; 72.060938; 13112256.267502
4254.04; 71.531025; 13112329.082999
4255.06; 70.316918; 13112400.662588
4256.08; 68.639193; 13112470.534324
4257.10; 66.791233; 13112538.524918
4258.11; 65.067104; 13112604.760421
4259.13; 63.692839; 13112669.596983
4260.15; 62.782234; 13112733.506588
4261.17; 62.329741; 13112796.955575
4262.19; 62.240176; 13112860.313388
4263.20; 62.382295; 13112923.815872
4264.22; 62.64552; 13112987.586308
4265.24; 62.979036; 13113051.696249
4266.26; 63.399966; 13113116.234679
4267.28; 63.969502; 13113181.352872
4268.29; 64.748035; 13113247.263577
4269.31; 65.748056; 13113314.192261
4270.33; 66.904066; 13113382.297713
4271.35; 68.072039; 13113451.592111
4272.36; 69.059753; 13113521.89196
4273.38; 69.677871; 13113592.821027
4274.40; 69.794042; 13113663.868349
4275.42; 69.371335; 13113734.485375
4276.44; 68.47792; 13113804.192942
4277.45; 67.26501; 13113872.66582
4278.47; 65.920887; 13113939.770438
4279.49; 64.616667; 13114005.547417
4280.51; 63.461671; 13114070.148659
4281.53; 62.482498; 13114133.753145
4282.54; 61.631575; 13114196.49143
4283.56; 60.82108; 13114258.404665
4284.58; 59.969963; 13114319.451499
4285.60; 59.047871; 13114379.559683
4286.62; 58.101122; 13114438.704118
4287.63; 57.251827; 13114496.984008
4288.65; 56.669844; 13114554.671464
4289.67; 56.525712; 13114612.212199
4290.69; 56.938598; 13114670.173235
4291.71; 57.934917; 13114729.14848
4292.72; 59.430309; 13114789.64597
4293.74; 61.241059; 13114851.986725
4294.76; 63.122715; 13114916.242926
4295.78; 64.826014; 13114982.233011
4296.80; 66.155291; 13115049.576242
4297.81; 67.013787; 13115117.793385
4298.83; 67.423675; 13115186.427776
4299.85; 67.515381; 13115255.155521
4300.87; 67.488926; 13115323.856336
4301.89; 67.557396; 13115392.626849
4302.90; 67.88728; 13115461.733171
4303.92; 68.551147; 13115531.51528
4304.94; 69.504811; 13115602.268179
4305.96; 70.594807; 13115674.130646
4306.98; 71.594235; 13115747.010488
4307.99; 72.258005; 13115820.56602
4309.01; 72.383817; 13115894.249622
4310.03; 71.863982; 13115967.404054
4311.05; 70.715593; 13116039.389475
4312.07; 69.081854; 13116109.711822
4313.08; 67.204286; 13116178.122885
4314.10; 65.372357; 13116244.669123
4315.12; 63.862293; 13116309.678181
4316.14; 62.879229; 13116373.686523
4317.15; 62.515958; 13116437.32507
4318.17; 62.737492; 13116501.18913
4319.19; 63.394454; 13116565.721949
4320.21; 64.261368; 13116631.137249
4321.23; 65.089977; 13116697.396037
4322.24; 65.664215; 13116764.239374
4323.26; 65.843451; 13116831.265165
4324.28; 65.58405; 13116898.026897
4325.30; 64.935339; 13116964.12827
4326.32; 64.013045; 13117029.290788
4327.33; 62.959185; 13117093.380521
4328.35; 61.900587; 13117156.392648
4329.37; 60.917777; 13117218.404316
4330.39; 60.032146; 13117279.51445
4331.41; 59.213391; 13117339.791128
4332.42; 58.403064; 13117399.242927
4333.44; 57.545579; 13117457.821843
4334.46; 56.616534; 13117515.455031
4335.48; 55.639812; 13117572.093959
4336.50; 54.688968; 13117627.764968
4337.51; 53.873375; 13117682.605739
4338.53; 53.313787; 13117736.876874
4339.55; 53.114364; 13117790.945005
4340.57; 53.338264; 13117845.241056
4341.59; 53.992048; 13117900.202631
4342.60; 55.02138; 13117956.212022
4343.62; 56.317672; 13118013.540981
4344.64; 57.73331; 13118072.310999
4345.66; 59.102106; 13118132.474393
4346.68; 60.261433; 13118193.817931
4347.69; 61.072866; 13118255.987474
4348.71; 61.4387; 13118318.529419
4349.73; 61.312277; 13118380.942671
4350.75; 60.700858; 13118442.733526
4351.77; 59.660802; 13118503.465647
4352.78; 58.286078; 13118562.798359
4353.80; 56.692506; 13118620.508884
4354.82; 55.000958; 13118676.497486
4355.84; 53.322885; 13118730.777882
4356.86; 51.750668; 13118783.457828
4357.87; 50.35366; 13118834.715681
4358.89; 49.179023; 13118884.777804
4359.91; 48.255142; 13118933.899456
4360.93; 47.595094; 13118982.349208
4361.95; 47.198405; 13119030.395148
4362.96; 47.050784; 13119078.290816
4363.98; 47.122992; 13119126.259988
4365.00; 47.370781; 13119174.481399
4366.02; 47.737585; 13119223.0762
4367.03; 48.160458; 13119272.101468
4368.05; 48.578171; 13119321.55195
4369.07; 48.939217; 13119371.369961
4370.09; 49.207245; 13119421.460812
4371.11; 49.362317; 13119471.709521
4372.12; 49.398049; 13119521.994603
4373.14; 49.316332; 13119572.1965
4374.16; 49.122304; 13119622.200886
4375.18; 48.821996; 13119671.89957
4376.20; 48.42375; 13119721.192858
4377.21; 47.942623; 13119769.996379
4378.23; 47.405357; 13119818.252987
4379.25; 46.852867; 13119865.947184
4380.27; 46.337841; 13119913.117106
4381.29; 45.916851; 13119959.85848
4382.30; 45.638549; 13120006.316554
4383.32; 45.531346; 13120052.665499
4384.34; 45.594671; 13120099.078907
4385.36; 45.797177; 13120145.698457
4386.38; 46.083297; 13120192.609265
4387.39; 46.387054; 13120239.829284
4388.41; 46.649681; 13120287.316646
4389.43; 46.836243; 13120334.993921
4390.45; 46.946488; 13120382.78342
4391.47; 47.016509; 13120430.644197
4392.48; 47.110228; 13120478.600376
4393.50; 47.302416; 13120526.752194
4394.52; 47.657285; 13120575.265254
4395.54; 48.208034; 13120624.338952
4396.56; 48.942697; 13120674.160506
4397.57; 49.800255; 13120724.855016
4398.59; 50.678566; 13120776.443609
4399.61; 51.452828; 13120828.820368
4400.63; 52.000686; 13120881.754822
4401.65; 52.228419; 13120934.921099
4402.66; 52.09227; 13120987.948782
4403.68; 51.610001; 13121040.485536
4404.70; 50.859951; 13121092.258772
4405.72; 49.967654; 13121143.123687
4406.74; 49.082797; 13121193.087856
4407.75; 48.351351; 13121242.307445
4408.77; 47.888603; 13121291.055976
4409.79; 47.75851; 13121339.672079
4410.81; 47.963289; 13121388.496638
4411.82; 48.444927; 13121437.811483
4412.84; 49.097832; 13121487.790957
4413.86; 49.789601; 13121538.474622
4414.88; 50.385394; 13121589.764779
4415.90; 50.770926; 13121641.44739
4416.91; 50.869722; 13121693.230573
4417.93; 50.651846; 13121744.791966
4418.95; 50.133426; 13121795.82563
4419.97; 49.36844; 13121846.080572
4420.99; 48.43572; 13121895.386045
4422.00; 47.424737; 13121943.662381
4423.02; 46.423165; 13121990.91916
4424.04; 45.507952; 13122037.244292
4425.06; 44.740042; 13122082.787724
4426.08; 44.161808; 13122127.742538
4427.09; 43.795967; 13122172.324943
4428.11; 43.645357; 13122216.754033
4429.13; 43.693989; 13122261.232628
4430.15; 43.910578; 13122305.931702
4431.17; 44.255614; 13122350.982007
4432.18; 44.691773; 13122396.476303
4433.20; 45.195556; 13122442.483429
4434.22; 45.766312; 13122489.071559
4435.24; 46.428355; 13122536.333621
4436.26; 47.223418; 13122584.405023
4437.27; 48.193948; 13122633.464382
4438.29; 49.361701; 13122683.712464
4439.31; 50.709124; 13122735.332164
4440.33; 52.171485; 13122788.440484
4441.35; 53.644979; 13122843.048758
4442.36; 55.010693; 13122899.04727
4443.38; 56.168103; 13122956.223975
4444.40; 57.067263; 13123014.315986
4445.42; 57.727921; 13123073.080518
4446.44; 58.237383; 13123132.363662
4447.45; 58.725949; 13123192.144144
4448.47; 59.326749; 13123252.536214
4449.49; 60.132787; 13123313.748797
4450.51; 61.165496; 13123376.012632
4451.53; 62.365376; 13123439.497893
4452.54; 63.607712; 13123504.2478
4453.56; 64.737612; 13123570.147895
4454.58; 65.612164; 13123636.938247
4455.60; 66.135738; 13123704.261574
4456.62; 66.277796; 13123771.72951
4457.63; 66.069754; 13123838.985669
4458.65; 65.585204; 13123905.748576
4459.67; 64.913278; 13123971.827492
4460.69; 64.135952; 13124037.115124
4461.70; 63.316682; 13124101.568774
4462.72; 62.501641; 13124165.192747
4463.74; 61.728947; 13124228.030152
4464.76; 61.038194; 13124290.164399
4465.78; 60.473481; 13124351.723794
4466.79; 60.077479; 13124412.880074
4467.81; 59.879471; 13124473.834792
4468.83; 59.884239; 13124534.794364
4469.85; 60.069021; 13124595.942035
4470.87; 60.392374; 13124657.418866
4471.88; 60.81303; 13124719.323907
4472.90; 61.311434; 13124781.736301
4473.92; 61.904156; 13124844.75206
4474.94; 62.643177; 13124908.520111
4475.96; 63.597655; 13124973.259779
4476.97; 64.82295; 13125039.246745
4477.99; 66.327554; 13125106.765333
4479.01; 68.050501; 13125176.037807
4480.03; 69.858975; 13125247.151229
4481.05; 71.569069; 13125320.005453
4482.06; 72.984626; 13125394.300652
4483.08; 73.94268; 13125469.57111
4484.10; 74.351791; 13125545.258024
4485.12; 74.211974; 13125620.802611
4486.14; 73.611169; 13125695.735605
4487.15; 72.700607; 13125769.741685
4488.17; 71.657567; 13125842.685996
4489.19; 70.64671; 13125914.601299
4490.21; 69.790062; 13125985.644571
4491.23; 69.15162; 13126056.037936
4492.24; 68.737386; 13126126.009628
4493.26; 68.507299; 13126195.747102
4494.28; 68.393366; 13126265.368597
4495.30; 68.318439; 13126334.91382
4496.32; 68.211904; 13126404.350595
4497.33; 68.020804; 13126473.592839
4498.35; 67.716576; 13126542.525391
4499.37; 67.298189; 13126611.032043
4500.39; 66.792173; 13126679.023593
4501.41; 66.249442; 13126746.462667
4502.42; 65.738552; 13126813.381675
4503.44; 65.335438; 13126879.890332
4504.46; 65.110625; 13126946.170139
4505.48; 65.115876; 13127012.45529
4506.49; 65.372913; 13127079.002095
4507.51; 65.866706; 13127146.05156
4508.53; 66.545087; 13127213.791587
4509.55; 67.325277; 13127282.325814
4510.57; 68.106643; 13127351.655438
4511.58; 68.787906; 13127421.678558
4512.60; 69.286094; 13127492.208812
4513.62; 69.553867; 13127563.011647
4514.64; 69.591469; 13127633.852759
4515.66; 69.449764; 13127704.549622
4516.67; 69.221967; 13127775.014598
4517.69; 69.023913; 13127845.277962
4518.71; 68.965796; 13127915.482167
4519.73; 69.121515; 13127985.844887
4520.75; 69.503791; 13128056.596747
4521.76; 70.053128; 13128127.907808
4522.78; 70.645795; 13128199.82218
4523.80; 71.120862; 13128272.220148
4524.82; 71.320396; 13128344.821233
4525.84; 71.132249; 13128417.230793
4526.85; 70.523216; 13128489.020384
4527.87; 69.552653; 13128559.821983
4528.89; 68.36227; 13128629.411824
4529.91; 67.144867; 13128697.762401
4530.93; 66.100901; 13128765.050265
4531.94; 65.394777; 13128831.619327
4532.96; 65.121875; 13128897.910585
4533.98; 65.293106; 13128964.37615
4535.00; 65.838206; 13129031.396602
4536.02; 66.624063; 13129099.217024
4537.03; 67.481821; 13129167.910605
4538.05; 68.236561; 13129237.37248
4539.07; 68.735209; 13129307.341956
4540.09; 68.870298; 13129377.448948
4541.11; 68.598192; 13129447.278948
4542.12; 67.94987; 13129516.448983
4543.14; 67.031305; 13129584.683959
4544.16; 66.010235; 13129651.87953
4545.18; 65.088004; 13129718.136309
4546.20; 64.459257; 13129783.753051
4547.21; 64.267326; 13129849.174416
4548.23; 64.566984; 13129914.90082
4549.25; 65.306446; 13129981.379964
4550.27; 66.33628; 13130048.907434
4551.29; 67.444865; 13130117.563396
4552.30; 68.411105; 13130187.202949
4553.32; 69.0586; 13130257.501624
4554.34; 69.29434; 13130328.040271
4555.36; 69.11999; 13130398.401439
4556.37; 68.613413; 13130468.246933
4557.39; 67.888585; 13130537.354583
4558.41; 67.049502; 13130605.608082
4559.43; 66.155029; 13130672.951047
4560.45; 65.206521; 13130739.328471
4561.46; 64.160618; 13130804.641212
4562.48; 62.959724; 13130868.731495
4563.50; 61.566385; 13130931.403418
4564.52; 59.98741; 13130992.468013
4565.54; 58.278934; 13131051.793453
4566.55; 56.532132; 13131109.340725
4567.57; 54.847177; 13131165.172784
4568.59; 53.306983; 13131219.436992
4569.61; 51.960936; 13131272.330983
4570.63; 50.823165; 13131324.066772
4571.64; 49.882908; 13131374.84542
4572.66; 49.119365; 13131424.846814
4573.68; 48.512461; 13131474.230407
4574.70; 48.044283; 13131523.137413
4575.72; 47.69173; 13131571.685537
4576.73; 47.41621; 13131619.953192
4577.75; 47.158281; 13131667.958287
4578.77; 46.843064; 13131715.642505
4579.79; 46.396884; 13131762.872531
4580.81; 45.769615; 13131809.464024
4581.82; 44.953494; 13131855.224741
4582.84; 43.989588; 13131900.004244
4583.86; 42.957691; 13131943.733319
4584.88; 41.952174; 13131986.438822
4585.90; 41.052353; 13132028.228345
4586.91; 40.298451; 13132069.250429
4587.93; 39.682171; 13132109.645168
4588.95; 39.155084; 13132149.503353
4589.97; 38.650884; 13132188.848285
4590.99; 38.112269; 13132227.64493
4592.00; 37.511752; 13132265.830275
4593.02; 36.858793; 13132303.350936
4594.04; 36.191687; 13132340.192512
4595.06; 35.558996; 13132376.390035
4596.08; 34.999283; 13132412.017794
4597.09; 34.527894; 13132447.1657
4598.11; 34.135715; 13132481.914385
4599.13; 33.799092; 13132516.320402
4600.15; 33.495028; 13132550.416895
4601.16; 33.213625; 13132584.226932
4602.18; 32.961344; 13132617.780157
4603.20; 32.753271; 13132651.121574
4604.22; 32.597964; 13132684.304894
4605.24; 32.482295; 13132717.370469
4606.25; 32.364145; 13132750.315772
4607.27; 32.177743; 13132783.071326
4608.29; 31.851086; 13132815.494358
4609.31; 31.329598; 13132847.386536
4610.33; 30.597181; 13132878.533146
4611.34; 29.686406; 13132908.752627
4612.36; 28.673494; 13132937.941007
4613.38; 27.659459; 13132966.097143
4614.40; 26.743877; 13132993.321256
4615.42; 26.000328; 13133019.788467
4616.43; 25.461625; 13133045.707303
4617.45; 25.118992; 13133071.277353
4618.47; 24.934014; 13133096.659103
4619.49; 24.857694; 13133121.963163
4620.51; 24.84881; 13133147.258179
4621.52; 24.884848; 13133172.589881
4622.54; 24.962323; 13133198.000448
4623.56; 25.087759; 13133223.538704
4624.58; 25.264264; 13133249.256634
4625.60; 25.47997; 13133275.194144
4626.61; 25.703447; 13133301.359143
4627.63; 25.888034; 13133327.712045
4628.65; 25.983351; 13133354.161975
4629.67; 25.94946; 13133380.577405
4630.69; 25.768331; 13133406.808454
4631.70; 25.448503; 13133432.713931
4632.72; 25.021547; 13133458.184787
4633.74; 24.531976; 13133483.15728
4634.76; 24.024401; 13133507.613083
4635.78; 23.532383; 13133531.568033
4636.79; 23.072406; 13133555.054747
4637.81; 22.644331; 13133578.105699
4638.83; 22.237394; 13133600.742406
4639.85; 21.839123; 13133622.973691
4640.87; 21.443982; 13133644.802739
4641.88; 21.059022; 13133666.239915
4642.90; 20.705135; 13133687.316849
4643.92; 20.413905; 13133708.097323
4644.94; 20.221204; 13133728.681636
4645.96; 20.159283; 13133749.202916
4646.97; 20.249097; 13133769.815623
4647.99; 20.4943; 13133790.677936
4649.01; 20.877878; 13133811.930716
4650.03; 21.361986; 13133833.676295
4651.04; 21.89121; 13133855.960602
4652.06; 22.399116; 13133878.761935
4653.08; 22.817461; 13133901.989126
4654.10; 23.086858; 13133925.490551
4655.12; 23.167095; 13133949.073654
4656.13; 23.044973; 13133972.532442
4657.15; 22.737637; 13133995.678375
4658.17; 22.29016; 13134018.368796
4659.19; 21.767356; 13134040.527025
4660.21; 21.241338; 13134062.149791
4661.22; 20.777573; 13134083.300464
4662.24; 20.422822; 13134104.090015
4663.26; 20.198012; 13134124.65072
4664.28; 20.097833; 13134145.109447
4665.30; 20.096962; 13134165.567286
4666.31; 20.160937; 13134186.09025
4667.33; 20.258285; 13134206.71231
4668.35; 20.370194; 13134227.448288
4669.37; 20.494803; 13134248.311114
4670.39; 20.64496; 13134269.326792
4671.40; 20.84037; 13134290.541389
4672.42; 21.096911; 13134312.017135
4673.44; 21.416783; 13134333.818496
4674.46; 21.782846; 13134355.992493
4675.48; 22.159147; 13134378.549548
4676.49; 22.497608; 13134401.451142
4677.51; 22.748884; 13134424.608524
4678.53; 22.874173; 13134447.893445
4679.55; 22.854555; 13134471.158396
4680.57; 22.69534; 13134494.261273
4681.58; 22.424549; 13134517.088496
4682.60; 22.086368; 13134539.571465
4683.62; 21.731772; 13134561.693471
4684.64; 21.408952; 13134583.486861
4685.66; 21.155831; 13134605.022584
4686.67; 20.995914; 13134626.395519
4687.69; 20.937514; 13134647.709004
4688.71; 20.975489; 13134669.061147
4689.73; 21.094213; 13134690.534145
4690.75; 21.270684; 13134712.186783
4691.76; 21.477267; 13134734.049714
4692.78; 21.684133; 13134756.123226
4693.80; 21.861857; 13134778.377653
4694.82; 21.984568; 13134800.756995
4695.83; 22.033688; 13134823.186339
4696.85; 22.001677; 13134845.583097
4697.87; 21.894811; 13134867.871069
4698.89; 21.73387; 13134889.995211
4699.91; 21.551958; 13134911.934174
4700.92; 21.389329; 13134933.707588
4701.94; 21.285988; 13134955.375805
4702.96; 21.27354; 13134977.031351
4703.98; 21.368189; 13134998.783245
4705.00; 21.566688; 13135020.737202
4706.01; 21.846453; 13135042.975948
4707.03; 22.170059; 13135065.544112
4708.05; 22.493234; 13135088.441254
4709.07; 22.774469; 13135111.62468
4710.09; 22.983851; 13135135.021248
4711.10; 23.108791; 13135158.545
4712.12; 23.155077; 13135182.11587
4713.14; 23.142926; 13135205.67437
4714.16; 23.09916; 13135229.188318
4715.18; 23.047839; 13135252.650023
4716.19; 23.002236; 13135276.065306
4717.21; 22.960773; 13135299.438382
4718.23; 22.90835; 13135322.758094
4719.25; 22.82282; 13135345.99074
4720.27; 22.684621; 13135369.082705
4721.28; 22.486407; 13135391.972897
4722.30; 22.239305; 13135414.611549
4723.32; 21.973365; 13135436.979487
4724.34; 21.731553; 13135459.10127
4725.36; 21.55872; 13135481.047118
4726.37; 21.488745; 13135502.921733
4727.39; 21.533754; 13135524.842165
4728.41; 21.678875; 13135546.910324
4729.43; 21.884358; 13135569.187656
4730.45; 22.094703; 13135591.67911
4731.46; 22.252352; 13135614.331044
4732.48; 22.312154; 13135637.043854
4733.50; 22.252643; 13135659.696084
4734.52; 22.081145; 13135682.173736
4735.54; 21.83152; 13135704.397282
4736.55; 21.555348; 13135726.339696
4737.57; 21.309008; 13135748.031347
4738.59; 21.139968; 13135769.550922
4739.61; 21.075534; 13135791.004907
4740.63; 21.116483; 13135812.500575
4741.64; 21.236726; 13135834.118646
4742.66; 21.388809; 13135855.891531
4743.68; 21.5139; 13135877.791753
4744.70; 21.554171; 13135899.732968
4745.71; 21.465129; 13135921.583544
4746.73; 21.225534; 13135943.190222
4747.75; 20.842915; 13135964.407409
4748.77; 20.353492; 13135985.126386
4749.79; 19.816289; 13136005.298512
4750.80; 19.302379; 13136024.947502
4751.82; 18.881323; 13136044.167874
4752.84; 18.607556; 13136063.109563
4753.86; 18.509666; 13136081.951605
4754.88; 18.584877; 13136100.870207
4755.89; 18.799846; 13136120.007639
4756.91; 19.09734; 13136139.447907
4757.93; 19.406951; 13136159.203346
4758.95; 19.657237; 13136179.213566
4759.97; 19.786672; 13136199.355544
4760.98; 19.751588; 13136219.461808
4762.00; 19.530511; 13136239.343025
4763.02; 19.125341; 13136258.811797
4764.04; 18.560439; 13136277.705523
4765.06; 17.880495; 13136295.907095
4766.07; 17.147365; 13136313.362373
4767.09; 16.435319; 13136330.092818
4768.11; 15.823783; 13136346.200746
4769.13; 15.387154; 13136361.864205
4770.15; 15.182418; 13136377.319252
4771.16; 15.236797; 13136392.829654
4772.18; 15.538683; 13136408.647363
4773.20; 16.035183; 13136424.970487
4774.22; 16.638281; 13136441.907539
4775.24; 17.239377; 13136459.456481
4776.25; 17.729329; 13136477.504173
4777.27; 18.019238; 13136495.846979
4778.29; 18.05671; 13136514.227931
4779.31; 17.833525; 13136532.381689
4780.33; 17.383217; 13136550.077054
4781.34; 16.769994; 13136567.148185
4782.36; 16.072815; 13136583.509617
4783.38; 15.369347; 13136599.154949
4784.40; 14.723827; 13136614.143169
4785.42; 14.180878; 13136628.578691
4786.43; 13.765024; 13136642.590892
4787.45; 13.483893; 13136656.316913
4788.47; 13.332525; 13136669.888848
4789.49; 13.296868; 13136683.424486
4790.50; 13.355886; 13136697.020201
4791.52; 13.483009; 13136710.745323
4792.54; 13.648197; 13136724.638598
4793.56; 13.821471; 13136738.70826
4794.58; 13.977608; 13136752.936862
4795.59; 14.100542; 13136767.290605
4796.61; 14.185532; 13136781.730865
4797.63; 14.23769; 13136796.22422
4798.65; 14.266935; 13136810.747343
4799.67; 14.281111; 13136825.284898
4800.68; 14.280163; 13136839.821488
4801.70; 14.254138; 13136854.331585
4802.72; 14.186421; 13136868.77275
4803.74; 14.061399; 13136883.086648
4804.76; 13.873687; 13136897.209462
4805.77; 13.635001; 13136911.089305
4806.79; 13.375354; 13136924.704839
4807.81; 13.137211; 13136938.077953
4808.83; 12.963992; 13136951.274738
4809.85; 12.886621; 13136964.392762
4810.86; 12.912812; 13136977.537447
4811.88; 13.023045; 13136990.794345
4812.90; 13.174895; 13137004.205819
4813.92; 13.314502; 13137017.759408
4814.94; 13.391514; 13137031.391392
4815.95; 13.372733; 13137045.004258
4816.97; 13.250286; 13137058.492477
4817.99; 13.042125; 13137071.768797
4819.01; 12.785269; 13137084.783649
4820.03; 12.524422; 13137097.532971
4821.04; 12.299803; 13137110.05364
4822.06; 12.137787; 13137122.409384
4823.08; 12.046643; 13137134.672346
4824.10; 12.017739; 13137146.905886
4825.12; 12.030911; 13137159.152835
4826.13; 12.061622; 13137171.431045
4827.15; 12.087492; 13137183.73559
4828.17; 12.092468; 13137196.0452
4829.19; 12.068024; 13137208.329928
4830.21; 12.011915; 13137220.55754
4831.22; 11.925738; 13137232.697426
4832.24; 11.812718; 13137244.722264
4833.26; 11.676769; 13137256.608711
4834.28; 11.523139; 13137268.33877
4835.30; 11.36017; 13137279.902932
4836.31; 11.201076; 13137291.305144
4837.33; 11.064512; 13137302.56834
4838.35; 10.973006; 13137313.738387
4839.37; 10.949084; 13137324.884082
4840.38; 11.009843; 13137336.091627
4841.40; 11.161477; 13137347.453528
4842.42; 11.395574; 13137359.053731
4843.44; 11.688668; 13137370.952291
4844.46; 12.005618; 13137383.173491
4845.47; 12.306152; 13137395.700623
4846.49; 12.552885; 13137408.478919
4847.51; 12.718531; 13137421.425835
4848.53; 12.790346; 13137434.445855
4849.55; 12.770784; 13137447.445963
4850.56; 12.674668; 13137460.348227
4851.58; 12.524324; 13137473.097449
4852.60; 12.344654; 13137485.663774
4853.62; 12.159747; 13137498.041871
4854.64; 11.991722; 13137510.248926
4855.65; 11.861212; 13137522.323128
4856.67; 11.788102; 13137534.322907
4857.69; 11.790987; 13137546.325623
4858.71; 11.884523; 13137558.423554
4859.73; 12.075041; 13137570.715425
4860.74; 12.355927; 13137583.293226
4861.76; 12.704828; 13137596.226193
4862.78; 13.084423; 13137609.545571
4863.80; 13.447387; 13137623.23443
4864.82; 13.744674; 13137637.225915
4865.83; 13.93507; 13137651.411215
4866.85; 13.993392; 13137665.655884
4867.87; 13.915143; 13137679.820899
4868.89; 13.716499; 13137693.783703
4869.91; 13.429893; 13137707.454754
4870.92; 13.096605; 13137720.786533
4871.94; 12.758324; 13137733.773956
4872.96; 12.44959; 13137746.447101
4873.98; 12.192477; 13137758.858516
4875.00; 11.994164; 13137771.068058
4876.01; 11.847439; 13137783.128239
4877.03; 11.733776; 13137795.072717
4878.05; 11.628397; 13137806.909923
4879.07; 11.50651; 13137818.623054
4880.09; 11.349705; 13137830.176563
4881.10; 11.15127; 13137841.528075
4882.12; 10.919129; 13137852.643277
4883.14; 10.675419; 13137863.510393
4884.16; 10.452416; 13137874.150502
4885.17; 10.285493; 13137884.62069
4886.19; 10.204721; 13137895.008655
4887.21; 10.227244; 13137905.419549
4888.23; 10.352486; 13137915.957933
4889.25; 10.561447; 13137926.70903
4890.26; 10.820232; 13137937.723559
4891.28; 11.086799; 13137949.009442
4892.30; 11.319169; 13137960.531867
4893.32; 11.483182; 13137972.221252
4894.34; 11.558324; 13137983.987126
4895.35; 11.540783; 13137995.735145
4896.37; 11.443636; 13138007.384273
4897.39; 11.294424; 13138018.88151
4898.41; 11.130584; 13138030.211964
4899.43; 10.993231; 13138041.402599
4900.44; 10.91992; 13138052.518606
4901.46; 10.937321; 13138063.652327
4902.48; 11.055131; 13138074.905974
4903.50; 11.262801; 13138086.371019
4904.52; 11.530383; 13138098.108451
4905.53; 11.814018; 13138110.134612
4906.55; 12.065292; 13138122.416558
4907.57; 12.242348; 13138134.87874
4908.59; 12.319837; 13138147.419803
4909.61; 12.294782; 13138159.935361
4910.62; 12.186556; 13138172.340749
4911.64; 12.030858; 13138184.587643
4912.66; 11.869507; 13138196.670289
4913.68; 11.739107; 13138208.620193
4914.70; 11.661943; 13138220.491547
4915.71; 11.641604; 13138232.342198
4916.73; 11.664201; 13138244.215851
4917.75; 11.704284; 13138256.130307
4918.77; 11.733258; 13138268.074258
4919.79; 11.727653; 13138280.012503
4920.80; 11.675071; 13138291.897221
4921.82; 11.576657; 13138303.681758
4922.84; 11.446121; 13138315.333415
4923.86; 11.306151; 13138326.842589
4924.88; 11.183431; 13138338.226839
4925.89; 11.103326; 13138349.529545
4926.91; 11.085013; 13138360.81361
4927.93; 11.137539; 13138372.151145
4928.95; 11.257219; 13138383.610508
4929.97; 11.426862; 13138395.24256
4930.98; 11.617325; 13138407.068495
4932.00; 11.791681; 13138419.071917
4933.02; 11.911762; 13138431.197577
4934.04; 11.946091; 13138443.358182
4935.05; 11.877563; 13138455.449029
4936.07; 11.708892; 13138467.368176
4937.09; 11.464148; 13138479.038184
4938.11; 11.185528; 13138490.424569
4939.13; 10.92572; 13138501.546481
4940.14; 10.737411; 13138512.476702
4941.16; 10.662316; 13138523.33048
4942.18; 10.722272; 13138534.245291
4943.20; 10.914469; 13138545.355749
4944.22; 11.211851; 13138556.768929
4945.23; 11.568501; 13138568.545164
4946.25; 11.928687; 13138580.688053
4947.27; 12.237467; 13138593.145266
4948.29; 12.450564; 13138605.819402
4949.31; 12.541467; 13138618.586075
4950.32; 12.504473; 13138631.315089
4951.34; 12.353338; 13138643.890254
4952.36; 12.116201; 13138656.224024
4953.38; 11.828233; 13138668.264654
4954.40; 11.523877; 13138679.995463
4955.41; 11.230538; 13138691.427667
4956.43; 10.965035; 13138702.589599
4957.45; 10.733335; 13138713.515671
4958.47; 10.533174; 13138724.237987
4959.49; 10.358377; 13138734.782368
4960.50; 10.203337; 13138745.168924
4961.52; 10.06622; 13138755.415902
4962.54; 9.9500067; 13138765.544579
4963.56; 9.861269; 13138775.582926
4964.58; 9.8073802; 13138785.566416
4965.59; 9.7932993; 13138795.535572
4966.61; 9.819163; 13138805.531056
4967.63; 9.879534; 13138815.587995
4968.65; 9.9645243; 13138825.731451
4969.67; 10.062338; 13138835.974477
4970.68; 10.162317; 13138846.319277
4971.70; 10.257428; 13138856.760896
4972.72; 10.345401; 13138867.292068
4973.74; 10.428184; 13138877.90751
4974.76; 10.509963; 13138888.606199
4975.77; 10.594443; 13138899.390884
4976.79; 10.682278; 13138910.264983
4977.81; 10.769459; 13138921.227827
4978.83; 10.847148; 13138932.269755
4979.84; 10.903047; 13138943.368587
4980.86; 10.923958; 13138954.488704
4981.88; 10.89893; 13138965.583344
4982.90; 10.822293; 13138976.599971
4983.92; 10.695926; 13138987.487962
4984.93; 10.53029; 13138998.207343
4985.95; 10.343983; 13139008.737071
4986.97; 10.161791; 13139019.081336
4987.99; 10.011436; 13139029.272546
4989.01; 9.9193731; 13139039.37004
4990.02; 9.9062043; 13139049.454128
4991.04; 9.9824268; 13139059.615808
4992.06; 10.145346; 13139069.943332
4993.08; 10.377964; 13139080.507652
4994.10; 10.65044; 13139091.34934
4995.11; 10.924246; 13139102.469751
4996.13; 11.158548; 13139113.828671
4997.15; 11.317652; 13139125.349553
4998.17; 11.377926; 13139136.93179
